Time [s]	Current [nA]
0.000	30.900
1.000	53.595
1.996	55.517
2.994	52.500
3.997	56.126
4.938	52.386
6.005	56.842
7.005	54.495
8.005	54.195
8.998	52.966
10.001	59.216
10.939	50.102
11.939	55.194
13.001	52.161
14.004	56.226
15.021	49.011
15.999	56.641
17.000	52.143
18.000	51.195
19.001	56.738
19.996	59.090
20.994	68.230
21.999	67.555
23.001	67.758
24.001	67.193
24.996	63.310
26.034	72.606
27.005	64.772
28.006	67.426
29.006	67.193
30.005	68.061
31.003	63.521
32.005	70.252
33.002	68.398
33.994	60.780
34.995	66.727
36.025	64.911
36.999	70.527
38.002	70.781
39.002	61.394
40.002	65.993
41.002	66.593
42.005	70.382
43.003	63.521
44.000	68.699
45.003	67.391
46.005	67.326
47.016	66.561
47.999	65.609
48.999	68.993
50.002	67.291
51.002	66.493
52.002	67.093
52.996	63.072
54.000	69.017
55.016	66.200
56.006	70.296
57.006	67.993
58.003	68.499
58.996	64.243
60.006	68.508
61.003	67.596
61.999	59.833
62.996	66.493
64.001	67.953
65.023	66.791
66.004	68.902
67.003	61.055
68.004	66.627
69.005	66.627
70.007	69.953
70.999	62.695
72.000	67.326
73.000	65.893
74.003	66.095
75.002	69.062
76.041	64.541
76.942	71.358
78.005	62.364
78.995	13.635
