Time [s]	Current [nA]
0.000	24.639
0.934	64.340
1.989	64.259
3.024	65.597
3.990	73.388
4.997	71.294
5.992	63.072
6.987	67.430
7.988	67.725
8.996	69.636
9.990	64.883
10.995	68.650
11.990	68.234
12.996	67.786
13.994	67.729
14.994	71.193
15.999	71.308
16.990	62.355
17.989	67.661
18.992	67.092
19.994	69.354
20.997	71.678
22.024	67.958
22.994	63.602
23.989	68.837
24.990	68.225
25.998	71.194
26.995	65.189
27.999	68.320
28.992	67.566
29.992	67.893
30.991	65.259
32.005	68.731
32.997	68.239
33.996	67.661
34.995	65.959
35.993	66.092
36.998	69.147
37.995	62.481
38.997	67.259
39.995	55.205
40.994	23.421
41.998	36.052
43.012	43.783
43.988	60.752
44.994	60.531
45.989	62.871
46.994	65.665
47.999	69.943
48.996	62.983
49.996	68.793
50.995	66.360
51.997	66.460
53.035	67.045
53.987	64.279
54.991	68.619
55.992	67.093
57.001	65.603
57.992	67.198
58.999	69.606
59.996	62.080
60.998	68.356
61.997	66.260
62.991	66.794
64.030	63.420
64.988	65.964
65.998	68.180
66.938	64.462
67.997	67.415
68.995	65.424
69.999	68.320
70.995	62.644
72.011	65.741
72.997	68.147
73.994	65.991
75.000	65.401
75.990	64.301
76.991	19.379
