Time [s]	Current [nA]
0.000	54.457
1.009	65.504
2.027	63.059
3.006	61.587
4.004	63.721
5.002	63.885
6.006	62.145
7.001	58.587
8.006	63.476
9.010	61.747
10.010	15.398
11.009	20.518
12.027	35.163
13.003	41.287
14.010	55.605
15.007	55.316
16.002	54.266
17.007	63.974
18.010	65.497
19.004	59.048
20.022	62.175
21.007	64.765
22.004	64.487
23.001	64.286
24.007	66.296
25.003	60.335
26.004	64.194
27.006	64.764
28.006	63.194
29.002	59.432
30.006	64.934
31.028	62.420
32.010	65.879
33.011	63.730
34.011	62.494
35.008	58.127
35.946	64.066
37.008	65.813
38.002	57.338
39.008	68.880
40.004	59.231
41.039	61.830
42.007	68.072
43.007	56.594
44.007	62.494
45.003	62.644
46.004	64.194
47.002	60.415
48.008	63.612
49.008	62.294
50.009	62.831
51.026	64.104
51.946	63.363
52.946	64.894
54.004	60.580
54.948	67.260
55.947	62.419
57.009	62.517
58.005	58.930
59.004	63.357
60.007	62.407
61.007	62.294
61.946	59.525
63.009	60.295
63.946	64.881
64.946	64.694
65.947	63.594
66.947	62.594
67.947	63.894
68.947	58.394
69.947	61.994
70.947	63.094
71.947	61.894
73.012	64.594
73.947	62.561
74.946	57.952
75.947	64.494
77.012	65.252
77.947	60.636
78.947	65.093
79.959	65.112
80.947	58.395
82.036	27.545
