Time [s]	Current [nA]
0.000	34.688
0.993	51.052
1.993	57.294
2.938	65.602
3.938	57.294
5.006	57.351
6.001	60.697
6.997	58.227
7.998	57.237
8.996	60.114
10.001	61.387
10.999	54.303
11.996	59.874
12.996	59.294
13.938	59.548
15.031	59.976
15.996	57.093
16.997	59.734
17.996	58.653
18.996	59.594
19.998	60.174
21.000	61.770
22.000	54.895
22.997	60.074
23.997	60.294
25.003	61.486
26.024	59.054
27.002	58.992
27.998	61.640
28.997	62.456
29.998	60.434
30.996	56.908
31.939	61.500
33.004	62.060
34.000	59.934
34.999	60.955
36.036	59.647
37.002	57.862
38.004	61.770
39.006	59.176
40.000	58.445
40.999	59.053
41.998	55.250
42.991	60.618
44.027	57.813
45.007	60.872
46.004	59.573
47.004	60.094
47.999	56.879
49.002	59.416
50.002	51.295
50.998	56.621
51.998	55.794
52.999	58.136
54.010	58.154
55.008	51.650
56.003	57.683
56.999	56.621
57.999	55.794
59.001	57.579
60.011	57.915
60.941	53.113
61.999	52.263
63.002	55.927
63.999	60.375
65.027	56.372
65.999	55.550
66.999	57.194
67.999	57.594
68.998	57.752
69.998	57.494
71.004	57.648
72.003	51.747
73.003	55.794
74.002	55.950
74.941	61.123
76.007	56.802
77.007	53.695
78.003	56.119
79.003	56.894
80.003	19.898
81.011	16.169
81.997	24.643
83.006	35.477
83.999	44.104
85.002	47.553
86.004	54.740
87.002	61.817
88.004	61.571
88.995	17.758
