Time [s]	Current [nA]
0.000	4.560
1.002	69.953
2.001	70.163
3.001	70.293
3.999	64.923
4.997	72.438
6.002	70.810
7.003	68.924
8.002	69.563
9.023	71.296
10.013	62.418
11.003	73.124
12.007	70.610
13.006	69.663
14.007	68.425
14.999	66.223
15.997	71.909
17.003	70.967
18.002	68.962
19.003	69.623
20.027	69.329
20.999	66.043
21.999	71.993
23.007	70.231
24.003	70.073
25.002	68.831
26.000	67.128
27.002	72.049
28.021	70.847
29.003	72.091
30.002	68.562
31.003	68.425
31.998	64.818
32.997	71.464
34.003	70.470
35.003	70.893
36.003	69.262
37.006	71.379
37.994	67.200
39.023	69.381
40.008	72.683
41.009	68.724
42.003	69.611
43.001	65.625
44.003	71.650
45.009	68.948
46.004	68.536
47.004	68.993
47.999	67.330
48.943	75.734
50.016	68.120
51.008	72.573
52.003	69.943
53.004	69.823
53.999	65.622
54.997	72.638
56.004	70.868
57.005	68.924
58.004	68.762
59.023	71.926
60.014	63.667
61.005	74.160
62.010	69.844
63.009	69.763
64.009	69.593
65.007	65.490
66.006	71.765
67.009	70.282
68.009	68.893
69.009	68.193
70.037	66.919
71.007	65.973
72.004	66.292
