Time [s]	Current [nA]
0.000	18.720
0.999	53.248
2.030	53.729
3.002	60.796
3.998	51.802
4.998	55.794
5.999	55.694
6.996	56.464
8.003	57.392
8.996	52.160
10.021	58.336
11.004	49.842
11.999	55.773
12.995	55.918
13.999	57.365
15.001	52.742
15.943	58.381
16.994	52.802
17.995	55.239
18.999	56.867
20.005	58.742
21.013	56.443
22.000	51.768
22.995	56.175
23.942	58.706
24.999	55.151
25.998	53.802
27.001	55.827
27.999	55.305
28.998	55.550
30.002	57.365
31.042	54.802
31.998	55.015
33.001	56.425
33.998	55.862
34.998	56.394
36.002	57.322
37.005	59.216
38.002	46.034
38.998	44.775
40.001	43.066
41.017	44.976
42.013	45.377
43.001	42.506
44.001	44.096
44.998	41.821
46.002	43.465
46.999	45.833
48.006	47.165
49.002	40.558
49.998	45.377
51.001	43.465
52.034	43.074
53.005	49.326
53.944	46.960
55.003	44.135
55.999	46.481
57.002	46.456
57.998	49.493
59.009	48.561
60.016	48.158
60.998	43.987
61.995	49.042
63.002	48.853
64.002	50.895
65.002	46.495
66.003	48.595
67.003	48.095
68.003	49.295
69.003	51.695
70.007	52.684
71.019	49.797
72.003	46.438
72.996	51.455
74.003	51.435
74.998	52.055
76.008	51.729
77.000	45.459
77.945	53.540
79.010	52.201
79.999	47.720
80.945	48.938
82.002	50.137
83.002	51.595
84.000	52.099
85.003	52.836
86.008	54.775
87.000	49.693
88.004	51.190
89.003	52.447
89.995	52.414
91.008	53.894
92.026	53.727
93.002	52.556
94.003	51.543
94.999	52.003
95.997	52.151
97.004	55.605
97.999	6.432
