Time [s]	Current [nA]
0.000	13.069
0.996	50.597
1.989	47.729
3.027	56.642
3.991	50.410
4.996	54.422
5.991	48.285
6.991	52.395
7.999	56.939
8.995	49.995
9.997	56.382
11.009	53.552
11.997	48.275
12.991	52.812
13.990	53.248
14.990	55.994
15.997	55.263
16.993	49.091
17.991	52.199
18.991	52.295
19.994	55.827
20.998	56.468
21.995	39.815
22.994	15.514
23.991	21.663
24.990	32.329
25.995	42.625
26.998	49.347
27.993	44.719
28.991	53.201
29.994	54.132
30.994	56.194
32.040	54.297
32.990	54.310
33.993	56.126
34.991	53.201
35.992	53.295
36.995	54.332
37.998	56.425
38.991	48.233
39.994	51.540
40.990	52.806
42.013	52.292
42.995	55.799
43.998	57.322
44.991	50.347
45.988	53.509
46.995	54.314
47.996	55.439
48.998	55.683
49.992	48.788
50.992	52.295
51.992	53.895
53.019	56.956
53.993	50.200
54.998	55.716
55.992	49.038
56.937	56.714
57.993	50.090
58.995	53.887
60.003	55.054
60.937	52.778
61.937	53.895
62.994	49.475
63.994	52.495
64.991	55.561
65.999	55.307
66.991	47.878
67.994	52.836
68.998	57.763
69.996	49.694
71.010	55.912
71.999	53.180
72.994	47.633
73.991	53.355
74.994	52.736
75.996	52.742
76.999	54.631
77.992	47.830
78.988	51.902
79.999	56.671
80.996	49.845
82.035	53.219
82.999	59.434
83.995	49.091
84.992	53.355
85.993	52.795
86.992	54.649
87.999	55.307
88.996	47.438
89.994	51.999
90.994	52.695
92.000	53.971
93.020	52.446
93.994	52.869
94.996	53.587
95.997	52.895
96.992	25.425
