Time [s]	Current [nA]
0.000	13.322
0.999	61.355
1.995	60.436
2.994	65.659
3.997	64.301
4.997	62.857
5.938	60.249
7.014	64.027
7.996	60.483
8.998	65.363
9.998	64.494
10.999	63.430
11.997	63.521
12.994	60.776
14.000	67.190
15.014	64.456
16.005	64.877
16.998	63.236
17.939	60.993
18.995	62.399
19.998	65.298
21.005	65.535
21.999	63.877
22.997	62.819
23.995	60.615
25.023	64.356
25.998	66.660
27.001	63.802
27.997	59.432
28.997	20.298
29.995	23.845
30.997	41.712
32.005	51.285
33.005	55.694
34.000	56.979
34.994	60.960
36.031	64.086
37.000	71.613
38.001	64.629
38.997	64.753
39.997	64.993
40.996	60.454
41.996	65.293
43.005	65.900
44.000	63.712
44.999	64.658
46.022	65.551
47.001	59.647
47.997	66.961
49.000	64.400
49.998	64.022
50.998	63.494
51.996	58.110
52.998	64.764
54.000	65.463
55.003	63.566
56.002	63.857
57.026	62.298
58.002	63.621
58.998	67.062
60.006	63.982
61.000	63.173
62.001	62.631
62.995	60.758
63.995	65.493
65.015	62.310
66.007	65.215
67.001	64.480
68.002	64.030
68.998	60.837
69.999	65.428
71.001	64.664
72.000	62.256
72.998	62.419
73.996	59.213
75.032	63.472
75.999	67.522
77.002	64.699
78.002	64.794
78.998	63.749
79.995	60.175
81.127	32.682
