Time [s]	Current [nA]
0.000	23.148
0.995	59.492
2.006	65.770
3.006	65.893
4.003	64.989
5.003	63.557
6.004	63.930
7.000	60.436
8.004	66.826
9.000	64.853
9.992	57.857
11.000	69.239
11.996	60.235
13.034	63.577
14.000	68.109
14.995	58.185
15.997	62.631
16.997	63.494
17.997	66.793
19.001	68.121
19.994	59.209
20.996	63.167
21.996	63.194
23.009	65.048
24.007	66.326
24.997	60.398
26.001	63.902
27.001	64.294
28.001	64.294
29.004	67.092
29.939	64.486
30.997	60.580
32.000	63.104
33.000	63.394
34.031	63.815
34.995	64.101
36.000	66.129
36.997	65.189
37.996	62.756
38.995	63.657
40.001	65.799
40.997	59.733
42.017	62.837
43.005	65.277
44.004	64.558
45.001	65.590
45.998	60.536
47.006	66.164
47.996	58.883
48.997	63.730
49.996	64.358
50.999	66.294
52.003	66.627
53.007	63.440
53.997	57.974
54.999	64.065
55.998	64.823
56.999	66.926
58.003	68.121
58.996	59.108
59.940	67.684
60.995	59.899
61.999	64.934
63.023	64.642
64.002	67.409
64.997	58.487
66.004	63.711
67.003	63.657
67.999	66.258
68.996	59.673
69.996	63.894
70.997	63.930
71.996	64.258
73.011	65.018
74.020	64.414
74.997	60.997
76.003	63.377
77.003	63.194
78.003	63.394
78.941	13.751
