Time [s]	Current [nA]
0.000	22.107
1.005	63.078
2.002	67.596
3.010	66.660
4.006	59.331
5.007	64.094
6.007	64.194
7.008	67.126
8.031	64.216
9.011	63.361
10.011	64.494
11.011	63.394
12.011	63.194
13.009	67.228
14.006	60.776
15.010	63.902
16.007	63.284
17.011	64.237
18.039	63.321
18.949	66.587
20.007	61.714
21.011	63.539
22.011	64.094
23.011	64.994
24.015	67.523
25.006	59.186
26.039	67.370
27.009	60.509
28.008	64.458
29.008	64.494
30.008	65.993
31.006	61.016
32.012	64.606
33.011	64.758
34.011	65.393
35.016	66.826
36.008	60.075
36.950	67.509
38.012	60.163
39.011	63.257
40.012	59.934
41.016	55.871
42.008	50.197
43.012	51.987
43.950	53.833
45.013	49.242
46.012	55.550
46.951	50.900
48.013	50.372
49.013	53.295
50.008	53.361
51.006	54.003
52.002	49.995
53.005	54.132
54.010	53.129
55.011	53.795
56.012	52.043
56.951	52.391
58.042	48.758
59.016	58.618
60.016	54.695
61.016	55.094
62.014	57.309
63.005	53.880
64.006	52.742
65.014	55.208
66.009	53.964
67.009	54.895
68.029	55.191
69.011	59.974
70.008	53.555
71.013	58.701
72.012	57.452
73.010	57.810
74.014	61.249
75.007	54.375
75.952	56.456
77.013	59.184
78.014	56.937
79.036	57.137
80.011	57.533
81.018	60.868
82.007	52.674
83.008	57.936
84.009	59.335
85.004	12.260
