Time [s]	Current [nA]
0.000	54.814
0.996	65.054
2.025	64.425
2.992	64.420
3.999	68.216
4.997	67.929
6.000	65.662
7.003	65.098
8.004	67.825
8.999	62.406
10.014	65.314
10.942	64.864
12.002	67.729
12.941	64.637
13.994	65.805
14.994	67.693
16.001	66.395
16.998	65.289
18.003	65.267
19.003	68.193
20.001	61.216
21.026	64.384
21.997	68.376
22.996	65.559
24.000	65.631
25.005	68.917
25.998	63.035
27.001	67.989
27.997	66.359
29.001	66.428
30.004	70.083
31.027	60.502
31.995	69.415
33.000	66.362
34.002	65.662
34.996	65.587
36.003	68.184
37.001	61.717
38.004	67.989
38.997	67.365
40.002	66.561
41.015	68.897
42.019	67.623
43.001	63.028
44.003	67.059
45.004	67.226
46.005	66.193
47.005	69.493
48.002	62.782
49.003	68.025
50.001	66.927
50.999	67.027
52.038	67.173
53.005	66.074
54.004	69.262
55.004	67.793
56.003	66.126
57.005	66.560
58.007	68.057
59.003	61.640
60.023	66.464
61.005	68.934
62.011	45.522
63.002	24.518
63.994	34.976
65.002	48.507
66.004	56.837
67.001	58.971
68.002	61.033
69.006	68.320
70.003	63.183
70.945	70.163
72.009	63.621
73.010	66.127
74.010	66.293
75.001	62.052
76.002	67.593
77.057	47.104
