Time [s]	Current [nA]
0.000	18.327
1.006	58.642
2.031	57.360
3.003	56.064
4.003	59.194
5.001	59.874
6.004	60.712
7.008	61.249
8.001	52.462
9.002	58.336
10.000	58.311
11.005	60.093
12.048	58.767
13.003	57.795
14.004	59.934
15.005	59.894
16.004	59.654
17.000	60.636
18.010	28.116
18.999	19.715
20.000	33.363
21.000	42.496
22.004	52.385
23.040	52.987
24.003	57.419
25.006	61.471
26.004	61.216
27.005	60.733
28.005	63.394
29.008	64.400
30.004	56.219
31.003	60.454
32.011	66.362
33.038	54.620
34.001	64.791
35.008	63.811
36.005	56.063
37.002	60.977
38.004	60.872
39.005	62.931
40.008	63.005
41.005	54.458
42.004	59.153
43.016	64.914
44.033	60.171
45.007	57.959
46.001	56.835
47.000	60.254
48.005	59.596
48.999	58.847
49.948	62.902
51.009	57.770
52.025	57.475
53.009	53.552
54.005	58.026
55.003	58.110
56.004	61.094
57.009	60.790
58.005	52.906
58.999	58.042
60.012	63.271
61.006	55.226
62.049	58.575
63.001	57.662
64.006	58.402
65.003	58.670
66.015	63.495
67.004	55.202
68.011	61.066
69.007	53.007
70.004	58.169
71.003	58.453
72.006	59.416
73.041	58.062
73.997	57.630
75.001	57.564
76.004	56.581
77.006	57.679
78.004	59.613
79.011	60.669
80.007	53.107
81.003	58.127
82.004	57.637
83.035	57.317
84.005	61.746
85.012	61.525
86.007	53.361
87.099	34.337
