Time [s]	Current [nA]
0.000	26.175
1.002	66.760
1.998	61.440
3.028	70.284
3.998	60.303
4.998	64.394
5.996	65.390
6.999	68.288
7.999	61.194
8.999	66.193
9.998	65.359
11.003	64.571
11.993	59.792
13.008	63.540
13.999	65.382
15.003	62.107
15.999	60.837
16.999	62.194
17.992	58.806
18.997	63.675
19.998	63.830
20.999	62.232
21.998	61.656
22.994	58.528
24.028	60.922
24.998	68.034
25.999	62.294
26.999	61.794
27.999	62.494
28.990	59.227
29.997	63.946
30.996	61.355
31.999	60.413
32.998	60.855
34.035	62.867
34.999	57.878
35.999	65.059
37.003	61.946
37.999	61.239
38.999	60.894
39.989	57.772
40.997	61.502
42.003	62.519
42.999	62.142
43.998	61.856
45.037	60.688
45.996	60.995
47.002	63.811
47.939	61.893
48.999	64.616
49.999	61.394
50.991	58.865
51.990	64.158
53.007	61.744
53.999	63.703
54.999	62.194
56.002	62.070
56.994	58.462
57.994	63.494
59.000	62.618
59.999	61.856
61.000	61.432
62.000	63.994
62.995	59.592
64.011	60.722
65.005	62.469
66.001	63.310
67.000	60.955
68.004	64.237
68.940	62.066
70.002	58.375
71.000	60.214
72.002	61.371
72.989	59.062
74.029	61.052
75.000	65.081
76.006	61.486
77.000	61.966
78.001	62.132
79.002	63.230
79.998	58.127
80.993	7.537
