Time [s]	Current [nA]
0.000	41.586
0.997	59.874
2.002	59.795
3.005	63.204
4.033	60.403
5.010	57.576
6.009	60.955
7.006	60.977
8.006	59.694
9.002	56.721
10.007	62.879
10.996	56.112
11.998	61.870
13.006	66.759
14.044	59.146
15.002	55.480
15.998	58.829
17.000	60.473
17.999	61.055
18.998	61.555
20.004	62.022
21.006	62.668
22.019	59.816
23.006	54.098
24.009	59.017
25.006	58.227
26.006	60.494
27.003	55.260
28.006	58.419
29.006	56.694
30.007	58.136
31.010	60.114
32.001	56.301
33.004	59.715
34.005	62.331
35.007	42.753
36.012	13.829
37.011	24.422
38.006	31.957
38.994	45.846
40.004	49.302
41.004	55.194
42.007	63.503
43.022	55.561
44.003	64.214
45.006	62.768
46.001	61.401
47.000	60.955
48.009	64.513
49.005	57.424
50.005	61.994
51.001	60.938
52.001	61.294
53.007	62.916
54.024	60.368
55.003	57.706
56.005	60.434
57.000	61.300
57.946	64.793
59.009	60.577
60.000	57.310
61.006	60.630
61.999	61.525
63.001	60.473
64.041	58.167
65.002	58.683
66.006	62.706
67.006	62.394
68.005	60.555
69.006	58.336
70.003	55.862
71.005	62.668
72.021	58.951
73.012	63.364
74.012	62.294
75.012	60.555
76.003	57.108
77.001	61.317
78.007	61.028
79.004	60.776
80.009	60.093
81.009	64.194
82.005	57.725
83.031	59.351
84.006	65.019
84.946	60.313
86.001	0.379
