Time [s]	Current [nA]
0.000	57.687
1.000	68.393
1.994	59.753
2.994	63.194
3.994	64.094
4.997	66.992
5.992	60.859
7.023	68.179
7.999	57.884
8.999	62.294
9.998	61.355
10.997	66.960
11.992	60.295
12.994	63.766
13.993	61.455
14.994	60.933
15.992	63.384
17.019	60.072
17.995	57.371
18.995	60.794
19.993	60.415
20.995	60.872
21.997	62.269
23.000	63.603
23.998	55.305
24.998	61.794
25.999	58.994
27.001	61.271
28.022	58.662
28.999	59.052
29.938	62.827
30.995	57.610
31.998	59.316
32.992	56.634
33.938	66.167
35.000	57.904
36.006	60.093
37.001	60.898
38.019	60.603
38.997	57.458
39.995	60.916
41.004	60.945
41.998	60.054
42.998	59.094
43.994	55.918
44.993	62.857
46.021	59.682
47.005	63.307
48.001	60.436
48.999	60.315
49.997	57.309
51.001	61.149
52.004	61.210
53.000	60.436
54.000	58.994
54.995	56.175
56.007	61.220
57.023	57.967
58.004	63.398
59.004	61.494
60.005	60.533
61.001	57.223
62.004	62.107
63.005	58.735
64.001	58.428
64.997	53.408
66.002	59.954
67.024	59.681
67.997	55.185
69.002	58.502
69.997	60.396
71.003	43.435
71.999	13.151
73.002	22.929
74.002	31.597
75.002	41.596
76.002	49.845
77.022	55.975
78.004	65.268
79.002	56.407
80.001	63.457
81.002	62.132
82.001	61.155
82.996	57.180
83.999	63.603
84.994	23.917
