Time [s]	Current [nA]
0.000	23.941
1.001	52.642
2.034	56.626
3.005	55.710
3.999	61.966
5.008	60.212
6.008	58.194
7.008	58.894
8.005	54.659
9.007	61.770
10.009	59.575
11.008	59.554
12.000	53.825
13.003	58.219
14.000	63.986
15.004	61.448
16.001	54.312
16.997	58.428
17.997	60.694
19.004	62.258
20.005	62.331
21.022	58.696
22.006	53.755
23.005	59.754
24.001	59.733
25.006	63.241
26.001	55.974
26.998	60.877
28.000	59.076
28.998	59.213
30.005	62.655
31.021	54.227
32.001	60.504
33.002	60.434
34.000	59.914
35.003	60.911
36.000	57.424
37.001	62.331
38.005	59.456
39.001	59.532
40.004	58.020
41.001	54.157
42.021	58.033
43.004	64.795
44.009	63.178
45.010	62.094
46.010	62.194
47.006	57.625
48.006	63.694
49.010	62.444
50.009	61.956
51.009	61.894
52.024	62.260
53.003	57.196
54.006	65.298
55.008	56.438
56.007	61.455
57.007	61.494
58.000	63.438
59.000	56.594
60.024	67.571
61.006	57.632
62.006	62.394
63.006	61.894
64.006	67.993
65.003	59.874
66.001	64.788
67.004	61.509
68.000	63.247
69.006	64.407
70.010	58.062
71.011	63.230
72.011	63.494
73.010	64.258
74.010	62.094
75.006	58.328
76.006	64.658
77.011	61.984
78.012	59.135
79.011	57.852
80.007	53.509
81.029	56.746
82.011	61.501
83.004	48.132
