Time [s]	Current [nA]
0.000	44.149
1.013	57.349
2.031	57.755
3.003	56.579
4.009	60.431
5.009	59.353
6.004	58.587
6.997	55.181
8.005	61.700
9.001	53.408
9.998	58.871
10.992	58.344
12.042	62.851
13.003	58.579
13.999	56.822
15.001	59.076
15.995	58.906
17.002	57.889
17.999	60.576
19.005	62.618
20.019	59.659
21.002	53.097
22.002	59.294
22.993	60.236
23.998	61.387
25.004	63.513
26.003	55.005
26.997	59.551
27.993	59.231
29.003	61.380
30.006	63.403
31.027	58.956
32.002	56.302
33.001	61.555
34.001	61.694
34.998	63.685
36.007	61.998
37.003	53.007
38.001	58.110
39.002	58.735
40.000	63.020
40.944	57.939
42.001	61.016
43.002	62.931
44.000	61.517
45.000	60.694
45.999	64.122
47.007	64.378
48.003	56.822
49.002	63.657
50.003	62.132
51.001	64.322
52.037	59.454
52.999	60.909
54.002	61.410
55.001	59.554
56.003	61.432
57.007	63.141
58.008	64.229
59.002	57.841
60.000	62.619
61.007	67.719
62.039	54.743
62.999	62.598
64.006	62.059
65.001	52.156
66.001	57.552
67.001	58.494
68.000	61.555
69.007	61.861
70.005	53.301
71.000	57.884
72.011	62.506
73.024	58.040
73.997	55.596
75.009	61.616
76.010	52.542
77.001	12.814
78.001	17.398
79.001	30.897
80.008	42.300
81.033	47.020
82.004	46.854
83.001	58.369
84.002	59.435
85.010	63.350
86.154	36.622
