Time [s]	Current [nA]
0.000	7.692
0.996	52.404
1.997	58.036
2.994	60.074
3.996	63.866
4.992	57.725
5.993	60.794
6.935	58.274
7.991	62.588
8.998	61.265
9.990	54.027
11.010	56.857
11.999	60.661
13.000	57.437
13.996	58.629
14.992	55.015
15.997	62.743
16.990	54.476
17.989	60.254
18.990	59.934
19.994	62.145
21.016	61.833
21.996	61.729
22.992	54.211
23.991	58.753
24.935	61.117
25.995	58.257
26.998	62.506
27.993	53.864
28.993	61.094
29.993	60.994
31.005	61.160
32.014	59.657
32.998	57.616
33.994	59.934
34.997	58.917
35.936	58.843
36.987	61.174
37.995	61.799
38.996	61.233
39.996	58.794
40.990	58.545
42.035	56.262
42.994	58.076
43.991	62.381
44.999	59.121
45.997	59.974
46.996	60.054
47.999	62.107
48.995	55.517
50.004	59.162
50.996	59.873
51.992	59.532
52.990	60.214
53.999	62.531
54.995	55.918
55.996	60.594
56.994	59.613
57.997	57.721
58.999	61.371
59.995	55.316
61.022	53.646
61.996	59.234
62.997	57.137
63.990	57.195
64.998	61.502
65.996	55.661
66.997	57.637
67.994	56.363
69.000	55.760
69.999	60.855
71.024	52.092
71.992	58.465
72.937	56.926
73.999	60.352
75.001	58.777
75.996	55.326
76.996	59.094
77.992	57.625
78.994	55.084
79.992	56.307
81.018	58.961
82.016	58.611
82.993	55.368
83.998	58.004
85.002	58.859
85.991	5.971
