Time [s]	Current [nA]
0.000	18.122
0.997	59.573
1.997	64.094
2.991	61.966
3.995	68.220
5.026	62.906
6.005	67.205
7.001	63.146
7.996	56.376
8.996	62.694
10.001	63.277
11.002	56.338
11.996	61.563
12.996	61.094
13.996	63.194
15.028	61.682
15.996	57.639
17.002	59.239
17.996	60.356
18.996	60.494
19.994	61.417
21.001	62.159
22.003	54.585
23.002	59.754
24.001	59.453
25.009	62.059
26.014	60.491
26.997	59.099
27.998	60.334
28.940	64.431
29.997	56.475
30.993	61.841
31.993	58.194
32.939	64.581
34.001	56.586
35.003	61.233
36.046	66.628
37.006	59.161
37.940	61.664
39.002	57.904
39.998	61.741
40.994	60.636
41.996	62.070
43.002	63.115
43.998	55.115
44.997	59.654
45.941	63.302
46.998	58.840
47.999	63.031
48.996	58.269
49.997	61.832
50.996	59.754
51.997	60.134
52.998	61.432
54.010	61.259
55.008	52.753
56.003	61.099
56.997	60.356
57.998	20.078
59.005	16.781
60.003	32.061
61.003	38.696
61.998	47.834
62.998	49.795
63.996	60.315
65.023	60.813
65.941	62.303
67.004	58.414
67.998	61.764
68.998	60.194
69.998	60.994
71.004	62.916
72.003	55.750
73.003	59.594
74.003	61.394
75.025	62.286
76.007	66.694
77.000	58.604
77.999	60.554
78.999	59.494
79.996	60.275
80.999	61.709
82.008	61.540
83.004	55.416
84.000	62.042
85.105	45.919
