Time [s]	Current [nA]
0.000	35.446
0.999	58.853
1.997	55.806
2.995	61.717
3.934	58.567
4.999	62.623
6.000	61.894
6.998	59.012
8.042	66.947
9.001	61.203
9.991	58.479
10.990	62.857
11.990	62.294
12.992	65.363
13.997	67.058
14.993	57.826
15.990	60.737
16.936	62.150
17.936	60.794
19.000	59.581
19.998	56.708
20.997	61.155
21.997	60.994
22.997	61.994
24.000	63.702
24.997	58.871
26.007	60.648
26.998	61.548
27.998	61.894
28.998	61.794
29.997	63.257
30.993	57.223
31.998	61.884
32.999	61.732
33.998	59.954
34.997	62.957
36.017	63.487
36.998	55.652
37.998	61.394
38.998	60.394
39.995	60.776
40.998	63.603
41.994	57.223
42.994	62.094
43.996	60.673
45.000	61.548
45.999	59.613
47.020	61.502
48.002	66.490
49.000	61.717
49.994	54.421
50.994	61.394
51.992	64.422
52.991	58.653
53.993	60.273
54.998	60.093
56.000	61.033
57.022	60.659
57.999	65.398
58.996	57.266
59.997	60.234
60.993	58.227
61.994	56.638
63.000	60.928
63.994	56.131
64.996	60.074
66.000	59.615
67.008	58.228
68.012	60.153
69.000	57.383
70.003	62.506
71.003	61.594
72.003	60.894
72.991	54.954
73.997	60.630
74.999	63.666
76.012	59.480
77.000	54.448
78.000	60.194
79.000	62.594
80.003	64.201
80.993	59.186
81.999	58.642
