Time [s]	Current [nA]
0.000	31.940
1.057	54.110
2.052	56.075
3.083	63.718
4.062	55.255
5.063	59.794
6.059	60.637
7.060	60.533
8.063	61.808
9.059	54.713
10.001	64.537
11.058	56.853
12.056	63.120
13.073	62.432
14.061	54.144
15.064	61.571
16.063	60.054
17.060	61.478
18.001	65.775
19.059	54.531
20.063	61.348
21.059	61.540
22.057	61.016
23.061	65.432
24.089	62.542
25.063	60.220
26.063	62.894
27.060	61.879
28.061	62.331
29.056	63.913
30.064	63.486
31.065	57.637
32.063	64.222
33.064	63.330
34.088	62.494
35.068	65.979
36.002	62.413
37.061	59.390
38.061	63.194
39.061	63.394
40.056	59.492
41.056	65.793
42.062	62.419
43.062	62.494
44.065	62.307
45.090	60.834
46.064	61.082
47.064	63.594
48.068	62.942
49.063	62.607
50.065	63.068
51.056	59.732
52.060	64.336
53.083	61.186
54.068	64.055
55.064	62.305
56.062	62.819
57.060	60.816
58.059	66.760
59.068	65.999
60.068	62.894
61.003	61.598
62.061	63.037
63.089	65.071
64.064	67.480
65.070	63.775
66.065	66.627
67.065	65.893
68.065	67.093
69.057	62.191
70.062	66.262
71.063	63.430
72.062	63.457
73.059	62.381
74.082	64.314
75.063	68.258
76.065	62.369
77.065	61.094
78.063	62.318
79.059	59.131
80.060	58.635
