Time [s]	Current [nA]
0.000	35.624
1.003	54.132
2.000	31.692
2.995	15.978
3.995	25.297
4.995	35.396
6.000	46.211
6.939	46.534
7.997	49.239
8.997	55.194
9.989	56.345
10.997	55.550
12.001	58.460
12.992	52.366
13.995	54.730
14.996	54.940
15.996	55.150
17.001	57.208
18.026	54.434
18.997	51.179
19.998	54.041
20.993	54.567
21.997	54.377
23.001	57.863
23.939	55.218
25.003	51.923
26.002	54.649
26.996	54.924
28.027	54.214
28.995	52.991
29.998	56.824
30.998	54.595
31.996	53.802
33.000	54.277
34.001	58.735
34.939	55.858
36.001	53.058
36.999	55.105
38.003	54.775
39.015	54.342
39.995	53.872
40.998	57.123
42.001	57.821
43.000	55.150
44.005	54.422
44.996	54.283
45.999	57.779
47.014	56.152
48.002	56.978
49.000	52.099
50.001	53.042
51.002	56.138
51.998	49.995
53.001	53.634
53.997	52.906
54.996	53.548
56.003	55.959
57.009	49.200
58.002	54.879
58.999	54.458
59.999	52.995
60.998	52.848
62.008	56.529
62.997	51.663
64.001	54.078
65.002	53.441
65.996	53.670
67.002	55.064
68.038	52.697
68.996	49.995
70.000	53.979
71.001	51.344
71.998	52.552
73.003	54.721
73.999	49.895
75.001	53.288
76.002	51.895
76.999	52.051
78.015	54.817
79.011	47.586
79.998	54.706
81.002	53.282
81.998	52.204
83.001	52.138
84.006	55.318
85.001	49.744
85.998	53.609
87.003	52.333
87.997	52.409
89.039	50.283
89.942	56.362
91.003	52.210
91.942	51.646
92.998	54.256
93.997	52.747
95.075	23.025
