Time [s]	Current [nA]
0.000	13.616
0.999	57.352
1.942	60.545
3.004	65.342
4.031	62.798
5.004	57.607
6.004	59.794
7.001	61.478
7.943	62.308
9.004	64.838
10.000	55.115
11.000	59.994
12.000	60.494
13.002	61.271
14.010	64.279
15.008	55.762
16.005	61.077
17.001	60.536
18.001	61.094
19.003	61.770
20.005	60.573
21.000	54.969
22.000	59.694
23.001	59.834
24.004	61.011
25.029	60.541
26.001	57.299
27.001	60.094
28.002	58.536
29.001	59.654
30.003	61.770
31.002	55.350
32.001	58.553
33.001	59.294
34.001	59.394
35.022	60.386
36.005	63.269
37.003	55.405
38.001	60.515
39.001	61.594
40.000	60.354
41.003	60.313
41.999	58.127
43.006	59.875
44.001	60.597
45.001	60.594
46.023	58.662
47.003	63.565
48.003	58.694
49.008	61.984
50.007	61.756
51.002	62.205
52.001	63.057
53.007	62.618
54.013	53.772
55.003	61.307
56.008	59.058
57.002	59.048
58.010	62.395
59.001	57.815
60.003	61.371
61.003	61.594
62.002	59.153
63.004	59.974
64.021	61.154
65.003	54.373
66.008	59.755
67.004	60.436
68.004	61.794
69.005	63.630
70.008	65.397
71.003	56.778
72.003	60.794
73.003	59.794
74.007	61.348
75.040	60.072
76.003	58.561
77.009	59.040
77.946	62.854
79.003	55.813
80.002	61.455
81.008	62.320
82.003	55.070
83.004	59.535
83.999	6.833
