Time [s]	Current [nA]
0.000	51.899
0.939	59.313
1.992	60.298
3.023	58.384
4.005	62.214
4.939	57.382
6.002	59.881
6.997	55.572
7.996	60.354
9.003	59.080
10.004	57.437
11.001	57.366
11.994	53.268
12.997	57.821
13.939	60.079
15.004	55.675
16.005	56.294
17.006	56.837
18.002	54.111
18.998	62.042
20.004	59.736
21.002	58.010
21.940	56.391
22.997	55.056
24.015	57.460
25.006	60.802
26.002	58.629
26.940	54.899
27.996	53.404
28.995	60.354
30.002	58.882
30.994	51.104
31.997	55.727
33.002	56.114
34.013	57.067
35.015	55.739
36.004	53.180
37.002	57.309
38.003	56.438
39.001	57.910
40.003	62.469
41.000	54.659
41.997	58.971
42.994	56.464
43.994	56.094
45.018	56.202
45.941	58.391
47.000	56.652
47.998	58.611
49.002	58.361
50.003	57.537
50.997	55.427
52.000	60.313
53.007	56.995
54.006	56.451
55.005	58.753
56.007	57.637
57.000	52.663
57.999	57.752
59.007	58.129
60.006	57.752
61.006	57.794
61.996	54.540
62.941	57.560
64.023	58.867
65.007	59.852
66.004	57.725
66.999	51.653
68.001	58.777
69.004	59.117
70.004	52.695
71.003	57.051
72.004	57.237
73.003	60.054
74.044	58.976
75.004	54.474
76.001	56.922
77.005	57.564
78.003	58.611
78.999	53.910
79.998	57.952
81.006	58.427
82.004	57.008
83.008	57.166
84.028	59.602
85.004	54.708
86.008	61.509
86.996	17.508
