Time [s]	Current [nA]
0.000	19.189
1.001	59.435
2.006	62.581
3.045	62.939
4.001	61.814
5.003	65.228
6.011	61.799
7.010	58.753
8.010	60.494
8.945	60.743
10.001	60.695
11.009	61.700
12.006	61.278
13.009	60.313
14.014	60.690
15.002	59.467
16.000	64.222
17.006	61.326
18.006	61.694
18.945	59.206
20.000	59.899
21.005	63.576
22.020	62.358
23.010	64.337
24.010	60.694
25.007	59.231
26.004	55.962
27.004	64.194
28.011	61.960
29.012	60.633
30.011	59.654
31.007	56.420
32.024	61.252
33.010	60.744
34.010	59.394
35.011	59.494
36.006	59.291
37.001	56.175
38.005	60.353
39.011	58.742
40.011	57.894
41.007	58.327
42.001	54.421
43.041	57.494
44.011	65.767
45.012	59.594
46.007	58.788
47.007	58.994
48.009	60.872
49.001	57.152
50.007	60.233
51.007	59.494
52.007	58.994
53.030	61.382
54.008	54.698
55.012	61.908
56.009	59.974
57.005	55.115
58.010	61.586
58.998	62.848
60.009	62.605
60.997	56.168
62.008	65.078
63.008	60.194
64.036	58.554
65.008	57.358
66.004	55.818
67.008	59.257
68.005	58.770
68.947	61.459
70.007	56.787
71.002	56.376
72.029	64.356
73.009	54.892
74.009	58.494
75.010	58.594
76.012	63.068
77.006	55.628
78.015	58.171
79.006	59.227
80.007	57.237
81.009	63.467
82.006	55.160
83.035	57.720
84.001	18.942
