Time [s]	Current [nA]
0.000	15.045
1.000	65.393
1.998	16.531
2.998	47.095
3.941	43.686
5.000	45.132
6.007	43.534
7.022	44.232
8.000	45.394
9.000	47.295
9.942	43.945
11.003	45.990
12.002	45.341
12.998	42.466
14.006	48.805
15.025	45.477
16.007	46.737
17.007	47.295
18.007	47.795
19.003	46.180
19.995	49.693
21.002	46.867
22.004	46.602
23.001	48.140
23.999	45.787
25.026	47.071
26.004	51.529
27.003	50.946
28.004	49.745
29.003	48.143
30.006	51.640
31.001	47.935
32.003	51.991
33.002	50.345
34.003	50.544
35.011	51.733
36.018	45.775
37.008	53.530
38.009	50.045
39.004	51.452
40.004	50.995
40.999	48.136
42.002	52.836
42.943	53.130
44.000	54.205
44.998	53.802
46.040	51.580
47.007	51.081
48.004	55.561
49.008	17.926
50.009	16.382
51.001	26.913
52.005	37.446
53.002	41.220
54.025	44.961
55.009	52.589
56.009	55.094
57.008	56.050
58.001	52.261
58.996	58.286
60.005	55.198
61.003	55.305
62.004	55.139
63.001	53.555
64.000	60.054
65.013	56.911
66.004	58.218
67.005	56.937
68.002	57.768
69.000	54.804
69.944	62.282
71.010	56.373
72.005	59.090
73.002	58.470
74.002	54.295
75.032	57.915
76.004	61.311
77.006	58.876
78.002	56.922
79.005	57.223
80.008	61.310
81.003	54.869
82.005	59.974
83.004	57.652
84.004	57.794
84.944	55.845
86.029	53.592
87.011	62.214
88.010	57.452
89.011	57.337
90.006	56.979
91.001	55.974
91.995	61.563
93.005	59.301
94.003	60.515
95.004	59.235
96.037	56.002
97.003	57.862
97.999	24.596
