Time [s]	Current [nA]
0.000	35.322
0.997	52.252
2.000	61.609
2.989	54.494
3.995	59.040
4.989	59.250
5.998	60.212
7.017	59.562
8.001	61.986
8.998	55.160
9.997	59.253
10.996	57.752
11.999	59.914
12.998	55.750
14.001	59.416
15.001	57.994
16.002	57.294
17.004	59.475
18.028	56.537
18.998	56.592
19.998	58.794
20.994	57.725
22.001	57.293
22.995	54.823
23.997	58.976
24.995	59.413
26.000	56.170
27.000	56.894
28.028	56.512
29.002	56.360
30.004	62.169
31.005	60.334
31.940	56.251
32.997	54.488
33.998	59.035
34.996	54.804
35.999	58.078
37.002	57.422
38.002	58.094
39.002	57.494
40.000	59.914
40.996	55.617
41.994	58.411
42.995	56.738
43.998	56.525
44.994	58.829
46.006	59.836
47.011	57.805
47.998	53.085
48.941	61.712
50.002	54.660
51.007	59.596
51.999	53.220
53.003	58.560
54.002	58.753
55.001	58.052
56.002	58.694
57.022	57.347
58.002	52.342
59.000	57.008
60.000	56.594
61.004	57.464
61.998	54.924
63.000	59.575
64.002	57.579
65.002	56.494
66.008	55.915
67.009	51.344
68.017	55.748
69.007	59.287
70.004	59.071
70.997	51.757
71.996	58.052
72.997	59.535
74.006	58.765
75.003	58.369
76.004	58.994
76.998	52.309
78.040	61.318
79.002	54.464
80.000	56.307
81.004	58.460
82.003	57.652
83.003	58.694
84.002	60.254
84.997	54.266
86.022	61.908
86.943	23.342
