Time [s]	Current [nA]
0.000	22.066
0.997	51.349
1.939	50.420
2.994	52.696
3.998	55.572
5.001	54.585
5.998	53.355
6.995	53.355
8.042	52.717
8.993	52.676
9.995	55.982
10.997	53.388
11.991	52.610
12.991	53.495
14.001	56.925
14.997	51.802
16.014	54.128
16.999	55.223
17.991	54.027
18.997	53.374
20.005	56.542
20.999	51.102
22.003	53.580
23.002	53.048
24.000	53.001
24.994	49.995
25.995	54.295
27.010	52.409
28.001	54.989
28.998	53.054
29.997	53.548
30.997	50.895
31.994	54.959
33.001	53.917
33.998	53.154
35.003	54.024
36.003	55.750
37.031	47.661
37.998	55.424
39.001	52.936
40.000	52.147
41.001	52.342
41.990	50.753
43.003	55.078
44.000	54.659
45.001	52.243
45.998	51.702
47.014	15.746
48.006	17.639
48.997	31.178
50.003	37.173
50.998	44.217
51.998	47.495
53.002	55.273
53.991	51.562
55.000	53.711
56.000	53.448
57.002	54.186
58.030	53.302
58.997	52.115
60.000	55.927
60.941	52.280
61.997	54.540
63.000	53.335
63.941	53.555
64.999	52.736
66.023	53.367
66.942	54.293
68.001	54.574
68.999	52.400
69.942	53.759
70.995	54.126
72.001	54.766
72.942	52.386
73.999	56.570
74.996	51.650
75.943	59.296
77.004	52.492
78.002	55.706
79.002	52.995
80.000	53.602
80.997	51.249
82.004	55.009
83.003	53.949
84.004	53.241
85.003	53.748
86.006	57.080
87.047	53.501
88.003	51.355
89.008	54.124
90.003	53.964
91.002	52.247
92.005	55.029
93.002	50.246
94.003	55.139
95.000	52.954
95.996	25.425
