Time [s]	Current [nA]
0.000	29.462
0.998	43.182
2.005	45.179
3.006	40.056
4.006	44.396
5.006	46.142
6.029	45.352
7.009	52.342
8.005	45.277
9.002	48.541
10.000	47.590
11.000	47.995
12.005	49.149
13.002	43.326
14.021	45.628
15.009	47.412
16.009	47.395
17.009	48.695
18.006	45.131
18.999	49.643
20.001	47.899
20.996	48.538
22.000	49.497
23.006	55.163
24.024	47.441
25.011	54.660
26.010	51.947
27.006	52.906
28.001	47.332
29.003	52.989
30.010	53.321
31.000	47.975
32.001	52.342
33.005	51.389
34.006	53.241
35.049	49.899
36.007	51.352
37.007	52.895
38.008	53.042
39.003	54.065
39.945	54.135
40.999	52.367
42.006	52.428
43.007	52.043
44.005	52.199
44.944	51.007
45.945	55.994
47.007	52.820
48.011	54.078
49.011	52.695
49.945	52.243
51.007	52.161
52.009	56.382
53.026	53.190
54.011	55.223
55.015	53.933
56.012	54.257
57.008	36.442
58.011	15.751
59.001	22.624
60.001	35.396
60.997	42.265
62.000	49.347
63.007	54.016
64.030	55.908
65.008	52.912
66.008	55.994
67.009	56.038
68.011	58.777
69.008	53.656
70.008	56.694
71.008	57.094
72.008	56.294
73.011	59.815
74.024	51.624
75.005	59.933
76.007	58.835
77.007	57.794
78.008	56.338
79.008	53.295
80.007	59.153
81.011	57.664
82.011	57.494
83.008	56.363
84.019	52.319
85.016	57.223
86.009	54.677
87.009	57.394
88.009	57.594
89.009	56.894
90.008	60.454
91.004	53.910
92.009	57.805
93.009	57.394
94.009	57.394
95.042	56.002
96.012	60.612
97.121	25.967
