Time [s]	Current [nA]
0.000	30.411
1.000	42.496
1.938	44.558
2.938	40.696
3.938	42.796
4.938	44.096
5.939	42.996
6.939	38.896
7.939	42.396
8.939	44.196
9.998	42.300
10.939	42.185
12.001	43.781
12.939	41.147
13.939	43.296
14.938	43.539
15.939	40.796
16.939	42.996
17.939	41.796
18.939	42.596
19.939	44.696
20.996	41.623
21.939	42.202
22.939	42.596
23.939	42.696
25.028	43.470
25.940	43.855
26.940	40.696
27.940	43.096
28.940	42.196
29.940	42.996
30.993	41.781
31.939	42.702
33.020	42.919
34.004	43.695
34.939	40.852
35.940	42.796
36.998	41.962
37.940	46.917
38.940	40.696
39.940	42.796
40.940	42.596
41.940	43.796
42.940	44.296
43.940	38.696
45.006	44.596
46.006	42.796
46.941	41.279
47.997	42.420
48.941	43.110
49.940	42.839
50.940	43.196
51.940	43.096
52.940	43.996
53.940	43.096
54.940	40.496
55.941	43.496
56.941	41.996
57.941	42.396
58.941	43.896
59.941	43.696
60.941	39.896
61.941	42.496
62.941	42.396
63.941	43.296
64.941	42.996
65.942	40.596
67.006	44.544
67.941	40.852
68.941	41.896
69.941	43.896
70.941	39.696
71.941	42.596
72.941	42.396
73.941	42.996
74.941	41.896
75.942	44.196
76.942	40.296
77.942	42.796
78.942	43.996
79.942	44.796
80.942	46.495
81.942	46.695
82.942	41.496
83.942	45.695
84.941	44.340
85.942	44.696
86.942	46.895
87.942	42.596
88.942	45.295
89.942	44.696
90.942	44.995
91.942	46.295
92.947	46.264
93.942	41.704
94.942	45.295
95.943	44.596
96.943	44.896
97.943	46.295
98.943	46.795
99.943	41.296
100.943	44.796
101.942	44.840
102.942	46.595
103.942	45.195
104.942	42.596
106.002	45.982
106.943	42.929
107.943	44.796
108.943	46.395
109.943	42.696
110.943	45.195
111.943	44.096
112.943	44.396
113.943	45.795
115.181	31.121
