Time [s]	Current [nA]
0.000	9.881
1.000	46.795
2.058	42.907
3.000	42.883
4.058	44.986
5.058	44.140
6.000	43.520
7.000	45.995
8.000	40.596
9.061	45.613
10.000	42.062
11.000	43.496
12.000	45.795
13.000	46.195
14.000	42.096
15.000	45.695
16.001	46.395
17.001	48.195
18.001	48.595
19.001	42.496
20.001	47.195
21.062	47.215
22.001	43.872
23.066	49.291
24.000	41.859
25.000	46.195
26.001	45.895
27.057	47.533
28.001	46.606
29.001	48.095
30.001	42.796
31.001	46.195
32.001	45.695
33.001	45.395
34.001	47.995
35.001	47.795
36.002	42.496
37.002	45.595
38.002	45.795
39.002	47.795
40.002	46.695
41.001	43.940
42.057	47.817
43.001	44.169
44.059	47.632
45.001	46.174
46.061	45.416
47.002	45.585
48.002	45.795
49.058	46.681
50.099	45.625
51.002	46.950
52.002	43.296
53.062	47.448
54.002	44.038
55.002	45.095
56.003	47.195
57.063	44.807
58.002	44.617
59.002	45.895
60.002	45.495
61.002	45.595
62.002	47.595
63.002	43.096
64.062	47.259
65.002	44.464
66.063	46.882
67.003	45.740
68.003	47.695
69.003	41.696
70.003	46.095
71.003	44.696
72.003	45.195
73.003	46.795
74.003	46.295
75.002	41.637
76.003	44.696
77.059	46.302
78.003	44.805
79.003	46.595
80.003	39.096
81.062	36.635
82.003	43.460
83.055	52.466
84.065	53.262
85.003	50.741
86.004	44.996
87.004	43.596
88.004	43.296
89.004	43.596
90.004	42.796
91.004	39.796
92.004	42.596
93.061	44.839
94.064	42.568
95.003	43.766
96.004	44.596
97.004	39.796
98.004	42.996
99.004	42.996
100.004	43.096
101.004	44.596
102.004	40.796
103.004	42.796
104.004	42.296
105.004	42.696
106.005	44.996
107.005	45.095
108.065	42.071
109.005	40.847
110.004	43.539
111.004	43.396
112.004	4.500
