Time [s]	Current [nA]
0.000	22.904
1.000	43.396
2.060	46.599
3.000	42.443
4.000	44.396
5.001	45.495
6.005	45.513
7.064	42.017
8.001	44.072
9.065	45.484
10.000	42.456
11.000	45.795
12.000	41.696
13.000	45.096
14.000	43.996
15.001	43.696
16.001	46.195
17.001	44.296
18.001	42.796
19.001	45.095
20.063	44.911
21.001	42.107
22.001	45.195
23.001	44.996
24.060	41.072
25.002	41.760
26.061	45.227
27.001	43.187
28.001	45.995
29.001	41.996
30.001	44.096
31.001	43.596
32.001	43.796
33.001	45.295
34.001	41.296
35.002	44.196
36.002	43.496
37.002	43.996
38.002	43.996
39.002	42.596
40.058	44.030
41.002	47.453
42.002	43.896
43.059	41.812
44.001	48.615
45.001	41.596
46.002	44.496
47.002	44.696
48.002	44.596
49.059	41.907
50.002	44.852
51.002	46.295
52.063	42.032
53.002	42.488
54.002	44.396
55.003	38.996
56.017	40.923
57.003	46.648
58.003	52.995
59.003	51.195
60.003	50.095
61.060	44.650
62.002	42.140
63.002	41.796
64.002	41.096
65.002	41.896
66.003	43.596
67.003	42.596
68.003	40.796
69.003	43.796
70.003	43.596
71.003	43.796
72.003	44.996
73.003	40.596
74.003	42.896
75.003	42.996
76.004	43.796
77.004	43.896
78.004	45.695
79.061	42.758
80.064	44.662
81.003	41.423
82.003	43.296
83.003	44.896
84.003	44.396
85.003	39.996
86.004	43.396
87.004	42.896
88.004	42.996
89.004	44.796
90.062	41.867
91.070	43.746
92.004	41.859
93.004	42.896
94.004	44.496
95.004	44.995
96.004	40.637
97.004	44.796
98.004	43.296
99.004	43.496
100.004	44.995
101.004	45.395
102.004	40.696
103.004	43.496
104.004	43.396
105.004	45.395
106.005	45.095
107.005	40.496
108.005	44.196
109.005	43.196
110.005	43.096
111.060	42.555
112.005	48.038
113.005	39.996
114.069	26.501
