Time [s]	Current [nA]
0.000	10.671
1.000	39.096
2.000	41.996
3.059	41.450
4.000	40.697
5.001	41.896
6.001	41.696
7.001	43.196
8.001	38.996
9.001	41.896
10.001	41.396
11.066	41.686
12.101	38.643
13.000	37.482
14.000	35.696
15.063	36.531
16.063	37.996
17.001	40.188
18.001	35.696
19.001	39.096
20.001	38.196
21.001	38.596
22.001	37.896
23.001	37.996
24.062	38.073
25.060	36.406
26.002	38.213
27.062	39.336
28.002	37.230
29.002	39.596
30.002	39.796
31.001	35.232
32.001	38.796
33.001	38.396
34.001	38.696
35.064	37.943
36.002	39.655
37.002	39.396
38.002	39.696
39.002	39.696
40.002	41.196
41.002	37.896
42.002	40.796
43.002	40.196
44.063	37.791
45.002	42.594
46.003	37.796
47.057	39.370
48.002	42.747
49.002	40.096
50.002	39.996
51.002	37.896
52.002	40.196
53.002	41.796
54.002	19.698
55.002	21.798
56.003	31.597
57.003	35.596
58.058	40.375
59.069	41.836
60.069	40.896
61.003	38.219
62.003	40.396
63.065	39.262
64.003	40.721
65.003	40.496
66.003	40.236
67.003	40.596
68.003	41.796
69.003	38.496
70.003	40.796
71.003	40.496
72.069	37.989
73.003	43.465
74.003	39.196
75.003	42.396
76.004	41.496
77.004	40.996
78.059	39.143
79.004	41.054
80.004	42.796
81.004	37.296
82.004	41.296
83.003	40.937
84.003	40.596
85.003	42.396
86.004	42.396
87.004	38.496
88.004	40.896
89.070	42.303
90.060	38.986
91.004	45.229
92.004	38.296
93.004	41.196
94.004	41.196
95.004	40.896
96.068	40.730
97.005	41.511
98.005	41.596
99.005	40.996
100.005	41.296
101.004	42.738
102.004	41.396
103.004	39.296
104.069	42.625
105.004	39.568
106.005	41.096
107.005	42.696
108.005	38.996
109.005	41.696
110.005	40.996
111.005	40.996
112.005	41.496
113.005	42.396
114.005	39.296
115.005	41.196
116.006	41.296
117.006	41.296
118.005	43.039
119.005	38.596
120.005	41.496
121.005	41.396
122.075	42.799
123.005	40.534
124.005	42.796
125.005	39.196
126.034	19.551
