Time [s]	Current [nA]
0.000	28.100
1.000	38.000
2.000	39.200
3.000	36.200
4.055	36.303
5.000	40.317
6.000	37.900
7.000	39.400
8.000	35.000
9.000	39.700
9.999	38.238
10.999	37.900
12.061	35.876
12.999	38.166
14.054	37.441
14.999	40.741
15.999	38.000
16.999	38.300
17.999	35.000
18.999	39.800
19.999	36.000
20.999	38.100
21.999	37.700
22.999	37.800
24.056	37.181
24.999	37.752
25.999	38.100
26.999	37.800
27.998	37.638
28.998	37.900
29.998	39.600
30.998	35.600
31.998	38.100
32.998	38.300
33.998	37.600
34.998	35.700
35.998	39.000
36.998	37.800
37.998	38.700
38.998	38.000
40.004	37.972
40.998	36.419
41.998	39.100
42.998	35.100
43.998	38.500
44.997	37.838
45.997	39.200
46.997	38.500
47.997	35.300
48.997	37.900
49.997	37.500
50.997	37.800
51.997	39.200
52.997	35.900
53.997	38.200
54.997	37.700
55.997	38.000
56.997	39.600
57.997	34.600
58.997	40.000
59.997	38.000
60.997	34.500
61.997	38.000
62.996	39.439
63.996	35.800
65.061	39.249
65.996	36.364
66.996	37.500
67.996	37.700
68.996	39.900
69.996	36.200
70.996	38.100
71.996	37.600
72.996	37.900
73.996	35.700
74.996	39.100
75.996	37.900
76.996	37.500
77.996	37.600
78.996	37.700
80.056	37.642
80.995	38.126
81.995	38.300
82.995	38.100
83.995	37.900
85.057	37.194
85.995	37.740
87.002	37.637
87.995	34.642
89.056	33.553
89.995	18.743
91.053	27.505
91.995	35.987
92.995	39.200
93.995	39.600
94.995	39.300
95.995	38.200
96.995	36.900
97.994	34.034
98.994	36.500
99.994	36.400
100.994	36.400
101.994	38.200
102.994	34.900
103.994	37.400
104.994	37.300
105.994	37.300
106.994	38.400
108.064	35.140
109.058	39.437
109.994	35.897
111.047	35.518
112.052	37.114
113.051	38.939
113.994	38.070
114.993	38.138
115.993	37.700
116.993	37.800
117.993	34.500
118.993	39.500
119.993	35.400
120.993	37.900
121.993	37.400
122.993	37.400
123.993	39.100
124.993	35.500
126.073	38.426
126.993	37.174
127.993	37.700
128.993	37.600
129.993	39.000
130.993	35.600
131.993	37.700
132.992	37.538
133.992	7.700
