Time [s]	Current [nA]
0.000	14.134
1.003	42.668
2.000	39.013
3.000	43.296
4.000	43.096
5.060	39.939
6.001	39.741
7.000	41.237
8.000	42.896
9.000	43.796
10.000	38.496
11.000	41.396
12.000	40.896
13.000	40.996
14.000	43.196
15.000	42.896
16.016	41.375
17.001	37.560
18.001	39.996
19.001	32.597
20.001	42.296
21.001	42.996
22.001	48.795
23.001	46.695
24.058	46.921
25.000	40.442
26.063	38.979
27.001	38.695
28.001	39.096
29.001	39.496
30.001	40.896
31.001	41.596
32.005	41.032
33.001	36.643
34.001	39.996
35.001	43.396
36.064	39.638
37.002	40.294
38.002	36.896
39.002	39.796
40.002	39.996
41.002	42.096
42.079	38.251
43.001	41.428
44.001	40.196
45.064	41.239
46.002	39.228
47.002	40.996
48.002	42.196
49.002	37.196
50.002	40.196
51.002	43.996
52.002	36.996
53.002	41.896
54.002	41.696
55.002	33.197
56.003	35.996
57.003	35.196
58.003	35.796
59.003	33.597
60.002	34.631
61.002	39.596
62.002	43.896
63.002	37.596
64.002	43.396
65.002	42.396
66.003	38.596
67.003	42.496
68.003	42.096
69.003	44.096
70.003	44.596
71.003	38.596
72.003	43.696
73.003	43.196
74.003	42.596
75.003	44.296
76.004	40.596
77.003	42.939
78.003	42.296
79.003	42.196
80.003	40.196
81.003	43.196
82.003	43.496
83.003	42.896
84.003	41.796
85.063	39.751
86.004	46.648
87.004	39.996
88.063	40.884
89.004	44.948
90.004	42.396
91.059	41.702
92.004	40.737
93.004	44.096
94.004	42.596
95.003	42.238
96.004	42.596
97.004	43.996
98.004	40.096
99.004	42.996
100.004	42.296
101.004	42.396
102.004	42.896
103.004	40.096
104.059	41.986
105.004	45.498
106.062	40.110
107.005	45.170
108.005	40.096
109.005	43.996
110.005	43.596
111.005	42.896
112.063	39.788
113.004	45.160
114.004	40.196
115.004	43.996
116.005	42.996
117.005	42.496
118.005	42.296
119.005	43.896
120.005	39.896
121.343	26.604
