Time [s]	Current [nA]
0.000	11.676
1.000	45.195
2.063	43.081
3.096	45.010
4.000	47.230
5.000	46.895
6.063	43.122
7.001	48.183
8.001	45.295
9.001	43.196
10.001	47.095
11.094	46.473
12.001	44.979
13.000	45.541
14.000	45.395
15.000	42.996
16.001	47.095
17.001	41.996
18.001	44.696
19.001	44.596
20.001	46.595
21.001	46.895
22.001	41.996
23.001	46.095
24.001	45.195
25.001	45.295
26.002	47.695
27.002	42.996
28.002	45.295
29.002	45.195
30.002	44.896
31.060	44.703
32.001	43.991
33.001	47.195
34.001	46.195
35.001	45.295
36.002	44.896
37.010	46.027
38.002	43.443
39.002	44.896
40.002	45.095
41.064	42.369
42.084	44.995
43.002	45.529
44.002	46.695
45.002	45.495
46.003	45.295
47.003	40.896
48.002	46.542
49.002	46.295
50.002	41.396
51.002	45.495
52.066	46.800
53.002	43.051
54.002	46.895
55.002	41.796
56.003	44.296
57.003	44.296
58.003	44.196
59.003	46.595
60.003	41.696
61.003	44.896
62.003	45.695
63.003	44.596
64.003	44.396
65.003	46.395
66.003	42.138
67.003	45.195
68.003	44.596
69.003	43.996
70.003	46.095
71.010	46.669
72.003	41.889
73.003	45.195
74.003	45.695
75.003	45.395
76.004	41.996
77.004	45.695
78.004	44.896
79.004	44.296
80.004	44.296
81.004	40.796
82.004	44.296
83.003	46.642
84.003	45.295
85.003	41.096
86.004	47.795
87.004	42.396
88.004	46.095
89.004	40.696
90.061	45.407
91.060	44.240
92.004	42.898
93.004	46.795
94.004	42.096
95.004	44.896
96.005	44.196
97.005	44.096
98.005	46.095
99.005	41.896
100.004	44.640
101.070	45.962
102.004	42.822
103.004	44.196
104.004	45.595
105.004	41.296
106.005	45.295
107.005	44.496
108.005	44.196
109.005	46.195
110.005	41.596
111.005	44.696
112.996	15.066
