Time [s]	Current [nA]
0.000	29.997
1.000	40.496
2.000	41.996
3.058	39.505
4.000	39.274
5.000	40.396
6.001	40.496
7.001	40.596
8.001	42.396
9.001	38.696
10.001	40.696
11.001	40.396
12.001	40.196
13.001	41.596
14.001	42.096
15.089	37.623
16.001	40.785
17.001	40.296
18.001	40.296
19.001	41.896
20.067	40.240
21.001	39.611
22.001	40.496
23.001	40.396
24.061	39.524
25.001	40.102
26.002	41.596
27.002	40.696
28.002	40.396
29.002	40.796
30.068	39.958
31.065	38.411
32.002	43.539
33.001	40.637
34.063	38.132
35.001	40.508
36.002	40.696
37.002	42.496
38.002	40.796
39.002	40.296
40.002	40.296
41.003	41.554
42.002	38.535
43.002	41.496
44.002	40.496
45.002	40.396
46.003	41.196
47.003	38.396
48.065	39.827
49.003	39.975
50.002	40.436
51.002	40.696
52.002	41.796
53.002	42.096
54.002	36.996
55.065	41.992
56.072	40.214
57.003	38.879
58.066	39.319
59.003	40.551
60.068	41.686
61.003	38.713
62.064	41.372
63.067	41.172
64.003	40.701
65.003	36.496
66.004	40.696
67.004	39.796
68.003	40.036
69.003	41.596
70.003	41.596
71.003	37.096
72.003	40.096
73.003	39.896
74.003	41.496
75.007	41.530
76.004	37.346
77.004	39.996
78.004	39.796
79.004	39.796
80.004	41.996
81.004	38.096
82.004	40.796
83.065	41.372
84.004	38.228
85.003	32.129
86.004	22.698
87.004	29.597
88.004	39.396
89.004	41.896
90.004	41.996
91.059	40.944
92.004	42.853
93.004	36.396
94.004	38.696
95.004	38.496
96.005	38.996
97.067	38.697
98.071	40.833
99.005	38.112
100.005	39.596
101.005	39.296
102.005	41.096
103.004	37.834
104.004	39.996
105.004	40.096
106.005	39.796
107.089	36.712
108.005	41.481
109.005	41.096
110.005	40.196
111.005	36.596
112.005	39.696
113.005	41.196
114.005	41.396
115.005	36.296
116.006	39.996
117.006	39.596
118.006	39.596
119.006	41.196
120.005	40.637
121.005	36.496
122.005	39.296
123.005	39.096
124.005	40.696
125.009	36.650
