Time [s]	Current [nA]
0.000	13.071
1.000	44.196
2.001	45.650
3.061	39.241
3.999	47.010
5.000	43.496
6.000	43.996
7.008	44.440
8.000	40.016
9.001	44.451
10.000	43.239
11.000	42.396
12.000	42.696
13.003	44.263
14.001	41.379
15.058	41.378
16.001	45.170
17.003	42.411
18.092	39.665
19.001	45.430
20.060	41.639
21.000	45.421
22.004	42.426
23.000	42.968
24.005	43.976
25.003	40.417
26.081	44.615
27.060	39.628
28.003	45.170
29.002	43.940
30.066	42.571
31.060	41.545
32.001	46.223
33.001	42.896
34.061	40.656
35.003	48.348
36.003	41.796
37.006	43.764
38.001	44.719
39.001	43.596
40.003	43.309
41.006	45.359
42.002	41.060
43.001	43.639
44.001	42.496
45.005	42.867
46.008	45.359
47.005	40.116
48.006	44.251
49.002	43.670
50.002	43.396
51.002	43.396
52.066	42.383
53.067	45.949
54.061	40.036
55.001	45.953
56.063	41.183
57.013	47.469
58.008	44.619
59.005	41.520
60.002	43.727
61.006	42.326
62.005	42.438
63.005	44.896
64.004	41.838
65.002	44.685
66.003	42.896
67.003	43.096
68.007	43.223
69.064	42.569
70.006	42.565
71.003	43.225
72.003	41.996
73.060	40.772
74.003	46.443
75.003	40.896
76.003	44.140
77.003	43.396
78.003	43.096
79.003	43.196
80.013	44.748
81.007	41.948
82.003	44.373
83.065	40.674
84.003	46.371
85.066	44.158
86.006	43.825
87.012	43.534
88.004	40.621
89.065	44.388
90.064	43.139
91.007	42.944
92.005	41.178
93.066	44.482
94.003	40.871
95.003	43.496
96.064	42.354
97.008	47.029
98.005	40.518
99.004	43.940
100.070	44.086
101.004	41.645
102.005	44.251
103.062	42.474
104.004	42.246
105.004	42.896
106.005	43.196
107.010	43.677
108.081	41.172
109.004	45.066
110.004	43.296
111.070	43.992
112.004	41.538
113.007	44.861
114.006	45.141
115.004	39.375
116.005	24.198
