Time [s]	Current [nA]
0.000	13.147
1.000	54.595
2.000	48.495
3.000	57.094
4.000	52.695
5.001	47.995
6.001	55.994
7.001	50.095
8.001	53.095
9.001	51.795
10.065	53.942
11.001	52.132
12.001	49.395
13.078	54.034
14.062	49.284
15.001	56.071
16.001	52.595
17.001	48.995
18.001	54.495
19.059	49.617
20.001	49.889
21.001	56.494
22.001	49.895
23.001	52.995
24.001	53.195
25.002	48.095
26.002	51.795
27.002	51.695
28.002	53.495
29.061	50.986
30.002	50.898
31.060	53.019
32.001	50.367
33.001	52.695
34.001	52.895
35.002	54.195
36.002	47.895
37.002	51.395
38.062	52.825
39.002	52.654
40.002	53.695
41.063	50.513
42.002	50.368
43.002	52.295
44.002	51.895
45.003	54.395
46.003	48.995
47.003	52.595
48.003	51.395
49.002	51.646
50.002	53.295
51.065	52.017
52.002	50.048
53.002	29.097
54.067	18.214
55.003	34.328
56.003	40.096
57.003	50.095
58.003	50.895
59.003	51.695
60.003	46.895
61.003	52.995
62.003	53.695
63.003	51.295
64.003	48.195
65.003	51.395
66.003	51.446
67.003	53.495
68.003	48.695
69.003	52.195
70.003	51.795
71.069	53.841
72.003	52.029
73.003	47.095
74.003	53.495
75.003	52.095
76.061	48.529
77.004	54.607
78.004	52.895
79.004	49.395
80.004	52.095
81.004	51.495
82.004	51.595
83.004	48.895
84.003	52.047
85.003	54.495
86.063	49.287
87.066	51.939
88.004	55.005
89.004	47.695
90.004	48.895
91.004	43.696
92.004	46.595
93.004	51.295
94.004	43.396
95.004	49.595
96.063	47.160
97.005	46.280
98.005	46.795
99.005	50.395
100.058	5.318
