Time [s]	Current [nA]
0.000	39.496
1.000	51.495
2.000	51.395
3.000	49.395
4.000	52.095
5.001	53.695
6.001	51.795
7.001	51.295
8.000	51.546
9.000	48.995
10.000	53.695
11.000	51.695
12.000	51.495
13.000	51.395
14.000	47.795
15.092	53.249
16.001	54.120
17.063	48.865
18.001	55.218
19.001	51.895
20.001	48.795
21.001	54.295
22.001	48.195
23.061	54.334
24.001	49.463
25.002	51.695
26.001	49.144
27.001	53.495
28.001	52.095
29.001	51.495
30.001	51.595
31.001	48.995
32.001	53.795
33.001	51.595
34.001	52.195
35.002	52.095
36.002	47.295
37.002	53.495
38.002	48.895
39.002	51.695
40.002	51.395
41.002	51.495
42.002	53.495
43.010	52.673
44.001	48.128
45.001	51.795
46.002	51.395
47.002	51.295
48.002	52.995
49.002	48.695
50.002	51.995
51.002	51.295
52.002	51.295
53.059	50.231
54.002	55.138
55.002	48.795
56.003	51.695
57.003	50.995
58.003	51.195
59.003	53.095
60.003	48.695
61.002	52.347
62.002	51.295
63.002	51.295
64.099	53.504
65.002	51.268
66.003	48.895
67.003	52.295
68.003	50.995
69.060	48.434
70.003	51.639
71.003	53.495
72.003	51.895
73.003	50.895
74.003	50.995
75.003	51.195
76.004	49.095
77.004	53.195
78.003	51.446
79.003	51.395
80.003	51.495
81.069	49.995
82.003	51.601
83.003	51.495
84.003	51.195
85.003	51.395
86.004	51.095
87.004	48.695
88.004	53.995
89.004	51.295
90.004	51.195
91.004	51.195
92.004	48.295
93.004	52.395
94.065	49.854
95.004	55.160
96.063	48.577
97.166	30.822
