Time [s]	Current [nA]
0.000	24.344
0.996	43.771
1.996	46.495
2.996	45.495
3.996	45.095
4.996	43.096
5.997	45.595
6.997	47.195
7.997	45.695
8.997	41.796
9.997	45.595
11.050	45.010
11.996	45.556
13.057	47.215
13.996	43.340
14.996	44.696
15.997	45.895
17.063	43.335
17.997	46.248
18.997	45.595
19.997	44.696
21.063	46.055
21.997	45.177
22.997	41.896
23.997	45.295
24.997	44.796
25.998	44.696
26.998	44.696
27.998	46.895
28.997	42.939
29.997	46.595
31.062	47.695
31.997	45.022
32.997	49.595
33.997	47.195
34.997	49.795
36.063	51.075
36.998	47.696
37.998	48.995
38.998	50.995
39.998	41.896
40.998	25.897
41.998	36.296
42.998	46.195
44.060	49.053
44.998	50.208
46.081	51.936
46.998	48.196
47.998	47.295
48.998	47.095
49.998	49.495
50.998	44.796
51.998	47.995
52.998	46.995
53.998	47.595
54.998	44.995
55.999	48.095
56.999	49.595
57.999	47.895
58.999	47.495
59.999	42.296
60.999	30.997
61.999	47.295
62.999	47.995
63.998	47.843
64.998	47.495
65.999	43.896
66.999	48.995
67.999	50.095
68.999	45.095
69.999	49.095
70.999	48.395
71.999	50.695
72.999	45.995
74.064	50.511
75.065	46.595
76.000	46.092
77.000	47.995
78.000	48.195
79.000	43.796
80.000	48.895
81.000	47.995
82.064	49.055
82.999	47.696
83.999	44.296
84.999	46.895
86.000	47.995
87.000	47.395
88.000	47.295
89.000	48.895
90.000	44.596
91.000	47.995
92.000	47.595
93.000	47.095
94.000	49.195
95.000	49.095
96.001	44.396
97.001	47.995
98.001	47.595
99.000	48.344
100.062	46.888
101.000	48.183
102.000	48.595
103.000	47.595
104.000	48.595
105.000	46.895
106.001	51.495
107.001	54.595
108.001	0.500
