Time [s]	Current [nA]
0.000	25.315
1.000	40.596
2.000	44.896
3.000	44.496
4.000	44.296
5.001	43.696
6.001	44.596
7.080	41.608
8.001	45.815
9.001	44.496
10.001	43.696
11.001	19.698
12.000	11.210
13.000	20.298
14.000	28.097
15.063	32.953
16.062	37.534
17.084	40.016
18.001	46.560
19.001	46.795
20.001	45.595
21.001	46.195
22.001	42.496
23.063	49.995
24.059	44.172
25.074	47.135
26.002	46.332
27.063	47.780
28.002	45.150
29.060	45.837
30.011	46.998
31.067	36.455
32.001	35.328
33.001	36.696
34.001	37.896
35.002	38.896
36.002	35.196
37.002	36.796
38.002	35.296
39.002	36.096
40.002	37.396
41.002	34.097
42.002	36.396
43.002	37.196
44.002	37.096
45.003	38.196
46.003	37.996
47.002	35.732
48.002	37.196
49.002	36.896
50.002	35.196
51.002	37.696
52.002	38.696
53.002	36.096
54.002	38.296
55.003	38.796
56.003	38.396
57.003	40.196
58.003	37.296
59.003	42.796
60.003	42.596
61.003	42.196
62.061	41.395
63.003	47.023
64.002	39.536
65.064	43.822
66.062	42.180
67.003	41.016
68.003	44.995
69.003	40.496
70.003	43.896
71.003	43.796
72.003	44.196
73.003	45.895
74.060	43.326
75.003	42.520
76.004	44.296
77.004	43.296
78.004	43.596
79.004	45.895
80.004	45.695
81.004	41.496
82.062	45.553
83.003	42.929
84.057	44.208
85.012	44.230
86.004	38.403
87.004	45.395
88.004	44.696
89.004	45.295
90.004	46.095
91.004	45.795
92.004	35.496
93.004	44.696
94.004	42.496
95.004	46.795
96.101	41.693
97.005	40.151
98.005	43.996
99.063	45.175
100.004	43.991
101.004	45.995
102.060	22.252
103.004	34.107
104.004	45.395
105.004	45.795
106.005	47.095
107.005	46.995
108.067	45.946
109.005	44.772
110.066	46.744
111.005	43.766
112.005	47.695
113.060	44.924
114.005	45.181
115.005	45.395
116.006	45.395
117.005	45.341
118.005	46.195
119.005	42.896
120.005	45.595
121.005	12.899
