Time [s]	Current [nA]
0.000	17.418
1.000	40.496
2.000	37.296
2.999	40.737
3.999	43.096
4.999	38.496
6.012	44.857
7.000	39.065
8.000	41.096
9.000	42.596
10.060	40.845
11.000	39.677
12.000	42.496
13.000	41.396
14.000	42.196
15.000	43.096
16.001	39.596
17.056	40.280
18.001	44.546
19.001	41.596
20.000	43.439
21.000	38.596
22.000	43.396
23.000	42.896
24.000	41.896
25.000	42.196
26.066	42.343
27.001	43.097
28.059	40.639
29.001	45.218
30.001	38.996
31.001	43.096
32.079	45.079
33.001	42.946
34.001	39.696
35.001	42.996
36.002	42.996
37.002	44.096
38.001	40.837
39.001	43.696
40.001	42.896
41.056	40.375
42.001	45.498
43.066	43.094
44.001	43.846
45.001	39.996
46.058	43.935
47.002	45.334
48.002	40.796
49.002	44.995
50.002	40.096
51.002	44.296
52.002	43.096
53.002	42.996
54.002	44.396
55.001	45.241
56.002	39.996
57.002	42.996
58.002	43.196
59.002	45.195
60.002	44.995
61.002	43.296
62.002	43.196
63.002	43.396
64.002	43.396
65.002	40.896
66.058	42.934
67.003	42.535
68.069	44.930
69.003	42.180
70.003	44.696
71.003	44.196
72.069	42.679
73.002	42.547
74.002	43.796
75.002	44.196
76.003	41.596
77.003	45.195
78.003	43.796
79.003	43.596
80.003	43.596
81.003	40.696
82.003	44.796
83.003	41.596
84.003	44.196
85.003	43.496
86.004	43.696
87.063	42.961
88.066	45.658
89.004	42.107
90.003	43.239
91.003	42.996
92.088	40.180
93.003	45.460
94.003	44.596
95.003	43.496
96.004	42.996
97.004	43.296
98.004	45.095
99.004	41.796
100.004	43.796
101.004	44.296
102.063	41.639
103.058	43.614
104.004	43.230
105.004	45.195
106.005	43.696
107.005	43.496
108.004	39.736
109.004	44.696
110.004	45.295
111.004	39.596
112.004	44.596
113.004	43.296
114.004	43.496
115.004	45.295
116.005	41.296
117.049	23.178
