Time [s]	Current [nA]
0.000	14.128
1.000	44.096
2.000	45.095
3.000	45.695
4.066	44.086
5.000	43.143
6.001	44.296
7.001	44.396
8.001	42.196
9.059	43.757
10.001	47.872
11.001	44.196
12.001	44.396
13.001	44.995
14.067	43.898
15.064	42.265
16.002	47.970
17.002	44.596
18.001	44.240
19.001	41.996
20.001	45.895
21.001	40.596
22.067	46.337
23.001	42.608
24.001	44.096
25.001	45.795
26.002	45.795
27.002	40.896
28.002	44.496
29.002	44.296
30.002	45.495
31.002	40.496
32.002	46.195
33.002	44.596
34.002	44.296
35.001	43.839
36.002	45.695
37.002	41.796
38.002	44.995
39.002	44.496
40.002	44.496
41.002	41.596
42.002	44.496
43.002	45.795
44.002	44.796
45.002	44.196
46.003	44.296
47.003	41.996
48.003	46.195
49.003	44.896
50.003	44.296
51.003	44.396
52.003	40.196
53.002	46.142
54.002	42.196
55.002	44.396
56.003	47.795
57.003	44.096
58.003	42.196
59.003	42.096
60.003	44.096
61.003	45.195
62.068	45.441
63.073	44.175
64.003	44.727
65.065	43.068
66.004	42.701
67.004	43.696
68.004	43.596
69.004	45.395
70.065	43.163
71.003	42.746
72.003	44.596
73.003	44.196
74.003	44.196
75.003	45.895
76.013	41.621
77.004	44.294
78.004	43.596
79.004	43.796
80.004	45.495
81.004	40.196
82.004	45.495
83.004	44.196
84.004	44.096
85.004	44.196
86.005	42.096
87.005	45.195
88.004	44.540
89.004	43.496
90.060	41.568
91.004	43.216
92.004	44.396
93.004	46.295
94.004	44.396
95.004	44.196
96.005	39.996
97.005	45.395
98.005	42.596
99.005	43.996
100.005	43.896
101.005	44.496
102.005	44.396
103.005	45.995
104.005	42.396
105.004	44.540
106.005	43.796
107.005	43.796
108.005	41.796
109.005	45.495
110.005	32.797
111.068	19.471
112.005	34.895
113.005	40.796
114.070	44.409
115.005	14.330
