Time [s]	Current [nA]
0.000	17.438
1.000	52.895
2.058	49.806
3.000	57.956
4.000	49.595
4.999	52.647
6.000	53.295
7.000	51.895
8.062	49.053
9.000	52.020
10.000	53.795
11.000	52.995
12.000	52.395
13.000	52.195
14.000	49.095
15.000	53.495
16.001	48.795
17.066	54.173
18.066	52.195
19.001	50.262
20.001	53.895
21.060	50.703
22.067	52.726
23.066	51.947
24.000	50.102
25.000	54.595
26.001	47.595
27.001	53.795
28.001	52.395
29.063	48.583
30.063	51.395
31.011	55.796
32.058	47.369
33.001	55.562
34.001	51.695
35.001	36.596
36.093	17.963
37.002	34.100
38.002	43.296
39.002	45.095
40.001	51.346
41.001	51.695
42.001	53.095
43.001	52.595
44.001	46.395
45.001	51.995
46.002	51.095
47.002	51.295
48.002	53.295
49.002	48.195
50.067	53.704
51.068	51.044
52.002	49.567
53.002	53.195
54.002	47.495
55.002	52.595
56.003	52.095
57.002	51.446
58.002	51.295
59.002	53.595
60.002	48.995
61.002	52.995
62.002	51.095
63.002	51.195
64.002	48.695
65.002	51.595
66.003	53.895
67.003	47.395
68.003	51.195
69.003	51.695
70.065	51.031
71.003	51.487
72.003	51.395
73.003	51.295
74.003	51.395
75.002	52.747
76.003	52.895
77.003	48.895
78.069	53.466
79.003	49.674
80.003	52.095
81.003	53.595
82.003	49.195
83.003	50.695
84.003	47.495
85.003	46.995
86.004	46.195
87.004	43.896
88.004	49.295
89.004	48.195
90.004	47.395
91.004	46.895
92.003	45.041
93.003	49.195
94.077	45.061
95.003	46.864
96.004	46.895
97.004	47.395
98.004	49.495
99.004	44.796
100.036	39.046
