Time [s]	Current [nA]
0.000	33.297
1.062	51.878
2.002	50.420
3.062	48.580
4.000	49.142
5.067	51.402
6.004	48.341
7.004	51.795
8.010	49.796
9.001	48.835
10.001	50.395
11.001	50.095
12.062	52.115
13.000	50.954
14.001	52.442
15.000	46.642
16.063	51.596
17.005	47.978
18.110	50.583
19.063	49.733
20.007	55.927
21.001	46.977
22.001	50.295
23.001	50.595
24.060	49.759
25.006	55.973
26.004	47.190
27.002	51.297
28.003	50.445
29.002	51.446
30.060	50.279
31.008	55.902
32.001	47.729
33.001	50.495
34.001	50.995
35.006	52.784
36.005	53.248
37.078	48.457
38.067	51.966
39.002	49.086
40.002	50.595
41.064	49.901
42.007	56.410
43.002	48.035
44.002	51.195
45.002	51.195
46.007	53.082
47.011	52.684
48.002	47.826
49.002	51.695
50.002	50.895
51.068	52.059
52.003	52.508
53.006	53.434
54.002	48.088
55.002	50.895
56.003	51.395
57.006	53.036
58.007	52.342
59.003	49.192
60.003	51.695
61.003	51.495
62.003	52.095
63.003	53.495
64.003	53.295
65.002	47.743
66.003	51.195
67.068	52.577
68.005	49.728
69.004	52.948
70.006	53.388
71.003	47.638
72.005	50.694
73.003	51.798
74.070	54.915
75.005	51.653
76.064	49.806
77.068	50.493
78.072	50.891
79.083	51.033
80.061	49.791
81.067	52.778
82.003	50.850
83.003	50.895
84.005	50.793
85.006	53.241
86.007	53.695
87.007	47.095
88.071	53.472
89.004	49.727
90.071	52.572
91.062	48.734
92.071	52.621
93.065	52.812
94.067	50.594
95.006	49.409
96.007	53.095
97.010	53.135
98.059	15.060
