Time [s]	Current [nA]
0.000	33.597
1.000	44.396
2.000	44.496
3.000	46.295
4.000	47.195
5.001	40.996
6.001	44.696
7.001	44.596
8.095	44.877
9.001	45.580
10.000	41.437
11.000	40.496
12.057	40.961
13.000	38.066
14.000	40.596
15.001	40.896
16.001	35.996
17.001	40.696
18.052	41.480
19.003	41.636
20.001	38.673
21.001	41.696
22.001	37.296
23.055	41.552
24.055	40.496
25.002	40.694
26.002	42.196
27.001	40.637
28.001	36.996
29.001	40.396
30.001	43.396
31.001	38.496
32.001	42.196
33.001	37.996
34.001	40.096
35.001	44.796
36.002	38.796
37.002	41.896
38.002	41.296
39.002	37.096
40.002	44.296
41.002	41.196
42.002	39.696
43.002	43.596
44.002	39.196
45.001	42.038
46.002	42.096
47.002	42.696
48.002	42.796
49.002	40.196
50.002	41.996
51.002	41.796
52.002	45.395
53.002	39.696
54.002	43.496
55.002	39.396
56.003	46.095
57.003	42.496
58.003	38.496
59.003	44.696
60.062	41.356
61.003	41.866
62.002	24.622
63.002	14.599
64.002	26.197
65.002	31.997
66.003	39.896
67.003	42.196
68.003	42.096
69.003	42.996
70.003	44.396
71.003	44.896
72.003	40.396
73.003	43.396
74.053	45.138
75.003	43.469
76.004	45.595
77.004	43.896
78.065	42.409
79.004	41.636
80.003	47.843
81.003	41.896
82.003	45.995
83.003	40.896
84.003	43.796
85.003	43.696
86.004	45.795
87.004	45.295
88.004	41.096
89.004	44.296
90.004	43.596
91.004	47.495
92.004	41.996
93.004	46.095
94.004	40.796
95.004	47.895
96.005	40.396
97.004	44.640
98.004	45.295
99.004	42.296
100.004	44.296
101.004	43.996
102.004	47.895
103.004	42.096
104.063	43.527
105.065	45.550
106.005	42.230
107.005	43.896
108.094	45.083
109.005	45.440
110.005	45.995
111.005	40.896
112.005	47.795
113.005	44.296
114.005	42.896
115.004	46.342
116.005	40.696
117.005	45.195
118.005	44.196
119.607	5.617
