Time [s]	Current [nA]
0.000	31.200
1.062	41.239
2.062	43.796
3.066	46.111
4.062	41.462
5.001	47.437
6.000	44.340
7.000	43.896
8.000	41.496
9.076	42.003
10.000	45.450
11.000	44.596
12.000	44.396
13.000	43.896
14.000	45.295
15.001	41.496
16.001	44.696
17.001	43.496
18.001	43.696
19.001	43.996
20.001	41.996
21.001	45.395
22.001	44.096
23.001	43.596
24.000	43.839
25.001	41.996
26.063	42.934
27.001	46.904
28.001	43.696
29.001	39.896
30.001	47.195
31.001	40.996
32.001	45.095
33.001	39.896
34.001	47.195
35.058	41.852
36.002	43.322
37.002	45.695
38.002	20.998
39.002	16.598
40.002	28.697
41.001	36.133
42.001	42.896
43.001	44.396
44.001	40.696
45.001	43.096
46.064	45.382
47.002	42.959
48.002	39.796
49.002	44.596
50.059	41.528
51.002	45.807
52.002	43.296
53.068	42.772
54.002	43.572
55.003	43.796
56.003	43.796
57.003	43.196
58.003	40.296
59.002	44.740
60.002	41.696
61.067	45.348
62.002	42.242
63.002	43.596
64.002	41.696
65.002	44.796
66.003	43.796
67.003	43.296
68.003	43.396
69.003	43.596
70.003	41.796
71.069	46.149
72.065	39.755
73.003	46.797
74.061	40.733
75.003	43.838
76.003	45.241
77.003	40.096
78.003	43.696
79.003	43.196
80.003	43.296
81.003	45.096
82.003	41.496
83.003	43.996
84.003	43.196
85.003	43.296
86.004	45.095
87.004	41.296
88.004	43.796
89.004	43.996
90.004	43.596
91.063	40.789
92.004	43.460
93.004	44.796
94.003	40.036
95.003	43.096
96.004	43.696
97.004	44.796
98.076	41.973
99.004	43.530
100.004	43.296
101.004	43.196
102.004	43.596
103.004	45.095
104.004	41.096
105.004	43.896
106.005	42.796
107.005	42.796
108.005	44.796
109.005	39.496
110.005	45.395
111.066	41.466
112.004	46.584
113.004	43.696
114.004	41.796
115.004	44.896
116.070	41.217
117.005	9.518
