Time [s]	Current [nA]
0.000	14.954
1.000	46.995
2.000	43.096
3.000	46.295
4.000	45.295
5.059	42.623
6.000	48.242
7.000	43.496
8.000	46.495
9.058	43.096
10.000	47.129
11.058	42.245
12.000	49.570
13.000	42.696
14.000	45.595
15.000	45.195
16.001	44.896
17.001	44.696
18.002	46.349
19.001	42.738
20.058	43.137
21.059	44.451
22.001	47.023
23.000	46.642
24.062	39.827
25.086	49.653
26.001	44.367
27.003	45.005
28.062	41.072
29.001	15.334
30.001	19.298
31.059	32.605
32.001	37.257
33.005	46.808
34.001	42.164
35.001	45.495
36.002	40.696
37.063	45.424
38.002	42.275
39.059	45.407
40.002	44.216
41.001	46.142
42.001	40.896
43.001	44.296
44.059	45.742
45.001	43.308
46.002	45.895
47.002	41.996
48.002	44.896
49.002	44.296
50.002	43.896
51.002	45.595
52.002	42.696
53.002	44.896
54.002	43.996
55.060	45.880
56.104	43.195
57.003	46.825
58.002	42.138
59.002	45.095
60.002	44.196
61.002	44.496
62.002	45.795
63.002	46.295
64.002	40.396
65.002	44.496
66.003	43.996
67.003	44.696
68.003	46.295
69.003	46.195
70.003	41.496
71.003	44.296
72.003	44.096
73.065	47.547
74.003	44.345
75.013	44.594
76.003	41.309
77.003	44.396
78.003	44.096
79.003	46.095
80.003	42.596
81.003	44.796
82.064	45.330
83.003	42.914
84.003	45.895
85.003	45.795
86.011	45.775
87.004	41.184
88.064	46.222
89.004	42.974
90.004	45.995
91.004	46.295
92.064	42.920
93.003	42.488
94.003	44.096
95.003	45.395
96.004	45.795
97.062	43.663
98.004	43.202
99.063	45.510
100.004	42.929
101.066	47.547
102.061	42.307
103.004	43.156
104.004	44.196
105.004	44.296
106.094	44.899
107.005	46.318
108.005	42.396
109.005	45.195
110.005	44.396
111.004	44.240
112.004	45.795
113.004	42.496
114.244	26.449
