Time [s]	Current [nA]
0.000	19.333
1.000	41.096
2.000	42.596
3.000	38.996
4.000	41.796
5.001	40.796
6.001	40.796
7.058	40.393
8.001	43.580
9.062	41.089
10.001	39.506
11.000	40.837
12.000	40.896
13.061	43.916
14.000	40.784
15.001	38.096
16.001	40.796
17.001	40.796
18.090	41.961
19.001	42.257
20.001	42.596
21.001	37.696
22.001	40.896
23.001	40.896
24.001	42.296
25.002	42.696
26.009	41.505
27.002	37.559
28.001	40.837
29.001	40.896
30.001	42.696
31.001	43.196
32.001	37.896
33.001	41.096
34.001	41.096
35.002	42.596
36.002	42.896
37.080	38.308
38.068	42.607
39.002	39.504
40.002	40.796
41.002	42.796
42.002	43.096
43.002	38.196
44.002	40.896
45.003	41.196
46.002	42.839
47.002	41.996
48.002	38.496
49.002	41.496
50.002	41.096
51.002	41.196
52.002	42.696
53.002	42.796
54.002	37.596
55.003	40.796
56.003	40.896
57.003	41.496
58.080	43.543
59.003	37.699
60.063	42.920
61.003	39.358
62.003	40.996
63.002	42.939
64.002	39.196
65.003	41.396
66.003	40.896
67.003	40.696
68.003	40.496
69.003	42.896
70.003	42.196
71.003	37.696
72.003	40.996
73.003	41.096
74.003	42.496
75.003	42.696
76.004	37.796
77.004	41.296
78.004	40.796
79.004	40.896
80.004	42.396
81.003	38.535
82.003	40.896
83.003	40.496
84.003	40.596
85.003	42.096
86.004	42.296
87.004	37.196
88.004	41.996
89.004	41.096
90.004	41.296
91.004	42.496
92.004	38.996
93.004	41.296
94.004	40.596
95.004	40.696
96.005	38.996
97.005	40.796
98.004	42.238
99.004	40.796
100.004	40.296
101.004	40.396
102.004	38.796
103.004	42.396
104.059	39.048
105.004	43.170
106.063	38.276
107.005	41.928
108.005	33.297
109.005	37.296
110.005	36.296
111.005	35.496
112.005	35.296
113.005	37.296
114.005	34.697
115.005	36.696
116.005	35.632
117.005	36.796
118.005	36.896
119.005	34.297
120.005	36.896
121.005	36.296
122.005	35.796
123.005	35.896
124.106	22.159
