Time [s]	Current [nA]
0.000	7.356
1.000	47.295
2.000	47.395
3.000	45.096
4.000	49.295
5.001	47.795
6.001	47.795
7.001	47.095
8.001	47.095
9.001	44.796
10.001	49.395
11.001	47.495
12.001	47.295
13.001	47.395
14.001	45.096
15.002	48.595
16.002	47.695
17.001	43.940
18.001	47.195
19.001	47.095
20.001	49.295
21.001	45.195
22.001	47.895
23.067	49.151
24.001	45.177
25.002	49.095
26.002	47.795
27.002	44.796
28.002	18.998
29.002	22.898
30.002	35.196
31.002	44.396
32.002	43.996
33.002	46.995
34.001	47.343
35.002	46.595
36.002	42.296
37.002	49.195
38.002	48.495
39.002	47.295
40.002	47.195
41.002	47.095
42.002	45.195
43.002	45.395
44.002	47.395
45.003	46.995
46.069	48.494
47.003	45.177
48.003	49.695
49.003	44.796
50.003	47.695
51.003	47.495
52.002	47.343
53.002	45.095
54.002	49.395
55.077	44.409
56.003	51.507
57.003	47.195
58.003	47.295
59.003	44.896
60.003	48.795
61.003	47.295
62.003	47.395
63.003	47.295
64.003	44.796
65.090	44.379
66.004	52.730
67.004	43.796
68.004	47.395
69.067	49.007
70.003	47.538
71.003	45.095
72.003	48.095
73.003	47.395
74.003	47.095
75.003	49.195
76.096	43.769
77.004	49.444
78.004	47.995
79.004	46.895
80.004	46.995
81.004	44.196
82.004	49.295
83.004	47.695
84.004	47.295
85.004	47.495
86.005	43.296
87.004	49.645
88.004	44.696
89.004	47.195
90.066	48.206
91.004	45.624
92.004	49.195
93.004	44.696
94.004	47.395
95.004	47.095
96.005	46.795
97.005	47.195
98.005	49.395
99.005	44.596
100.005	47.195
101.005	47.195
102.005	47.895
103.005	48.595
104.004	44.540
105.004	47.895
106.005	47.795
107.005	46.895
108.049	29.499
