Time [s]	Current [nA]
0.000	12.406
0.937	50.155
1.942	45.966
2.930	42.809
3.930	48.095
4.945	47.286
5.931	43.650
6.931	46.195
7.931	46.695
8.939	47.713
9.988	41.655
10.931	49.306
11.931	46.795
12.931	45.995
13.931	46.095
14.930	43.339
15.931	48.095
16.943	45.746
17.992	44.324
18.931	44.085
19.931	47.695
20.931	46.995
21.931	43.196
22.931	46.695
23.931	46.195
24.931	46.195
25.932	47.795
26.932	43.696
27.932	46.795
28.932	46.095
29.932	45.895
30.943	46.978
32.009	43.617
32.931	47.175
33.990	44.094
34.985	46.026
35.945	48.483
36.987	41.934
37.945	50.204
38.932	42.954
39.932	45.695
40.932	45.595
41.932	45.795
42.932	47.795
43.932	43.496
44.932	46.295
45.998	47.038
46.998	45.595
47.933	47.161
48.933	43.696
49.932	46.642
50.932	46.095
51.932	45.995
52.932	45.695
53.994	45.099
54.932	46.264
55.933	46.295
56.933	45.695
57.933	45.795
58.948	46.892
59.987	41.671
60.933	49.255
61.933	46.295
62.933	45.995
63.992	43.244
64.933	45.904
65.934	47.895
66.934	42.296
67.933	45.841
68.933	45.695
69.933	47.495
70.933	46.295
71.933	43.696
72.998	47.601
73.933	43.846
74.933	45.495
75.934	46.995
76.943	47.270
77.934	42.478
78.934	45.495
79.934	43.096
81.016	43.803
81.934	41.172
82.934	39.396
83.934	42.096
84.933	41.437
86.000	42.585
86.934	41.323
87.997	41.576
88.934	40.444
89.934	41.996
90.934	41.296
91.934	40.796
92.946	42.881
93.934	40.785
94.934	42.296
95.935	41.896
96.936	42.154
97.935	39.536
98.935	43.696
99.935	41.896
100.935	38.696
101.935	41.396
102.934	41.738
103.934	44.196
104.945	43.715
106.000	41.077
106.935	40.745
107.935	42.596
108.935	44.296
109.946	44.110
111.003	41.812
112.006	31.901
