Time [s]	Current [nA]
0.000	16.472
1.001	44.052
2.000	39.436
3.057	42.664
4.060	44.263
5.059	43.583
6.001	41.185
7.001	42.696
8.001	44.396
9.062	42.126
10.001	41.849
11.001	42.396
12.002	46.049
13.000	39.174
14.000	44.496
15.002	44.251
16.001	39.636
17.001	42.096
18.005	45.613
19.001	40.357
20.003	44.107
21.001	38.473
22.001	43.496
23.001	42.596
24.001	42.396
25.002	44.096
26.004	44.407
27.002	39.275
28.002	42.196
29.004	45.804
30.001	40.718
31.001	43.696
32.004	42.767
33.062	40.828
34.001	40.358
35.062	43.486
36.002	42.655
37.005	43.565
38.002	38.612
39.007	44.871
40.002	38.489
41.002	43.696
42.002	42.096
43.061	42.205
44.002	41.122
45.003	41.796
46.068	43.094
47.002	20.662
48.005	16.349
49.002	23.970
50.002	33.297
51.002	38.196
52.002	40.196
53.002	44.396
54.063	40.901
55.003	41.103
56.003	41.696
57.008	45.269
58.003	39.795
59.005	43.708
60.003	38.173
61.003	42.496
62.003	41.396
63.003	41.796
64.002	43.239
65.003	43.796
66.003	38.696
67.066	42.517
68.003	40.978
69.003	43.096
70.004	43.652
71.081	35.187
72.003	36.981
73.003	35.796
74.003	36.296
75.063	36.068
76.004	36.553
77.004	37.296
78.059	34.783
79.004	39.044
80.005	37.659
81.004	33.430
82.061	36.042
83.003	40.017
84.003	37.496
85.003	37.396
86.008	39.139
87.004	35.840
88.004	38.496
89.004	37.396
90.060	35.697
91.004	40.462
92.061	36.042
93.004	38.066
94.004	38.296
95.004	37.996
96.060	35.636
97.008	41.241
98.071	37.814
99.004	37.724
100.004	38.796
101.004	38.596
102.004	38.996
103.004	36.796
104.004	39.796
105.004	38.996
106.005	38.396
107.054	37.556
108.005	42.793
109.005	37.696
110.005	40.496
111.005	40.196
112.063	37.047
113.005	41.609
114.007	40.914
115.005	37.672
116.006	40.196
117.005	39.235
118.005	39.896
119.007	41.613
120.005	37.672
121.005	40.696
122.005	40.496
123.005	40.096
124.005	40.396
125.007	38.719
