Time [s]	Current [nA]
0.000	57.695
1.064	53.942
2.066	57.579
3.061	54.969
4.065	58.261
5.061	57.482
6.061	56.294
7.062	54.940
8.067	58.701
9.066	52.447
10.068	56.781
11.060	57.051
12.065	56.114
13.062	56.464
14.058	52.605
15.070	57.759
16.062	57.756
17.067	54.422
18.062	56.477
19.066	58.560
20.109	55.891
21.065	53.028
22.067	56.881
23.062	56.276
24.066	55.174
25.062	52.558
26.068	58.642
27.063	57.984
28.065	55.384
29.065	56.594
30.088	58.743
31.064	52.864
32.065	60.434
33.003	56.924
34.068	57.928
35.065	55.717
36.062	53.355
37.071	58.864
38.063	58.865
39.067	56.170
40.063	57.826
41.095	55.711
42.060	55.538
43.010	62.836
44.002	53.422
45.063	58.013
46.064	56.937
47.064	53.595
48.067	59.316
49.088	56.703
50.069	57.079
51.065	56.119
52.065	56.594
53.062	54.157
54.072	59.004
55.064	57.714
56.066	56.781
57.063	56.263
58.059	52.706
59.070	57.858
60.087	56.042
61.069	57.937
62.069	56.794
63.069	57.494
64.066	53.254
65.070	58.618
66.067	57.166
67.063	49.493
68.066	55.029
69.010	61.011
70.096	54.230
71.066	54.324
72.061	57.884
73.003	58.699
74.062	53.158
75.071	57.336
76.064	53.469
77.061	56.564
78.062	54.140
79.062	54.895
80.087	55.116
81.078	58.016
82.062	54.568
83.067	56.611
84.062	57.080
85.062	57.051
86.070	57.236
87.007	57.305
88.214	38.853
