Time [s]	Current [nA]
0.000	42.551
0.993	43.097
1.996	46.556
2.996	47.395
3.992	47.686
4.993	48.447
6.001	50.144
7.017	46.944
8.000	42.926
9.000	47.395
9.995	48.337
10.995	50.395
12.001	51.287
12.996	44.619
13.993	48.240
14.996	48.948
15.998	49.745
17.015	51.224
17.996	45.765
18.997	51.843
19.997	50.095
20.996	50.746
21.995	53.748
23.001	53.275
24.002	48.147
24.996	52.912
25.994	53.054
26.997	53.733
28.030	51.689
28.997	50.771
29.997	53.095
30.993	53.208
31.995	52.989
32.996	54.540
34.002	55.561
35.002	48.295
35.997	53.013
36.994	53.856
38.026	53.192
39.000	57.489
40.002	56.881
40.996	49.391
41.994	53.602
42.993	53.248
43.940	58.495
45.003	53.899
45.998	49.794
46.998	54.395
48.000	54.785
49.016	54.030
50.001	57.964
50.998	52.954
51.998	56.994
53.003	55.318
53.996	56.490
54.997	57.736
55.996	52.500
57.009	53.598
57.998	54.898
58.996	54.704
59.997	54.740
61.000	57.621
62.008	57.435
62.998	50.197
63.997	55.250
65.000	55.029
66.001	57.694
67.018	57.123
67.998	50.607
69.004	54.965
70.004	53.995
71.000	54.513
71.942	56.682
73.003	60.409
74.003	52.095
74.999	57.022
76.000	57.294
76.998	59.313
78.034	55.014
79.004	61.953
79.942	54.046
81.000	53.114
82.000	56.894
83.006	57.748
84.004	59.914
84.942	55.645
85.943	57.394
87.001	54.153
88.024	55.811
89.014	59.792
89.998	54.771
91.000	56.781
91.997	57.667
93.005	52.277
