Time [s]	Current [nA]
0.000	27.614
0.996	46.481
1.992	44.273
2.995	51.042
3.990	43.815
4.989	46.342
5.990	46.595
7.028	49.995
7.990	45.837
8.996	51.387
9.991	45.322
10.989	48.091
11.986	50.145
12.993	52.527
13.996	52.637
15.006	49.945
15.997	46.615
16.993	50.798
17.993	50.795
18.995	52.590
19.996	55.639
20.991	47.332
21.992	52.143
22.992	51.795
23.993	53.341
24.996	56.624
26.005	53.368
26.996	48.027
27.993	51.048
28.993	51.795
29.994	53.541
30.935	52.492
31.993	49.995
32.994	51.443
33.990	51.702
34.994	53.481
36.030	51.879
36.997	56.354
37.990	49.139
38.990	53.595
39.990	54.595
40.990	56.294
41.997	57.889
42.993	51.099
43.990	55.461
44.991	54.840
45.995	58.020
47.015	53.818
47.994	54.029
48.998	55.373
49.995	55.461
50.994	55.950
51.998	57.464
52.995	52.151
53.998	56.924
54.997	56.551
55.989	55.898
57.035	54.010
57.993	55.944
58.995	58.876
59.998	58.219
60.986	58.193
61.990	56.369
62.936	57.077
63.995	56.463
65.010	56.602
66.001	58.117
66.997	56.520
67.993	56.822
68.999	59.239
69.995	53.408
70.998	57.721
71.986	58.091
72.997	56.275
73.998	60.334
74.992	55.829
76.004	58.352
76.997	59.410
77.997	57.094
78.993	57.022
79.998	60.094
80.995	54.558
81.999	58.958
82.992	58.403
83.991	58.853
84.998	60.669
86.018	52.399
86.997	60.770
87.987	59.792
88.991	58.062
89.995	59.456
90.991	56.822
92.096	46.421
