Time [s]	Current [nA]
0.000	42.795
1.003	50.045
2.006	53.733
3.002	48.288
4.004	49.696
4.998	50.599
6.002	51.141
7.006	51.788
8.035	50.432
9.009	56.155
10.004	48.538
11.004	54.095
12.001	53.355
13.003	55.384
14.008	56.711
15.003	48.538
16.005	52.942
17.003	52.299
18.032	52.570
19.006	55.539
20.009	55.428
21.004	49.442
22.003	54.549
23.010	59.080
24.007	50.948
25.011	56.924
26.002	50.045
27.004	53.388
28.016	59.184
29.026	49.203
30.005	60.055
31.009	58.062
32.004	50.548
33.003	54.949
34.003	56.994
35.001	58.611
36.009	59.577
37.021	55.627
37.948	55.550
39.003	52.886
40.003	55.594
41.007	57.066
42.010	60.114
43.005	51.452
44.003	56.608
45.005	56.781
46.004	59.713
47.019	60.487
48.012	58.202
49.006	52.610
50.011	61.486
51.011	57.694
52.007	54.412
53.010	61.011
54.006	52.003
55.003	56.464
56.005	57.137
57.008	59.117
58.032	57.904
59.006	56.360
60.004	58.010
61.007	56.824
62.007	57.494
63.008	59.435
64.011	61.410
65.004	54.476
66.003	58.812
66.949	62.679
68.028	55.787
69.009	60.341
70.012	60.612
71.007	53.763
72.007	56.894
73.005	58.912
74.007	59.874
75.012	61.249
76.006	52.309
77.008	56.980
78.005	58.068
79.027	55.963
80.008	60.646
81.003	54.467
82.004	58.536
83.006	57.878
84.004	58.511
85.009	61.050
86.017	60.510
87.021	59.257
88.008	53.186
89.111	33.632
