Time [s]	Current [nA]
0.000	12.017
1.001	56.738
2.019	20.725
3.004	22.739
4.003	40.436
5.005	47.548
6.004	53.548
6.939	54.647
8.001	57.056
8.998	60.776
10.004	60.531
11.005	59.135
12.001	60.135
13.032	59.257
13.996	56.530
14.996	56.494
16.001	60.452
17.002	59.634
18.002	59.194
19.001	61.956
19.996	55.874
21.031	63.569
22.000	55.103
23.002	59.176
24.001	58.753
25.004	61.808
25.997	56.950
27.001	59.556
28.001	59.594
29.002	59.634
30.006	62.643
30.997	55.797
31.940	63.514
33.002	57.339
33.999	60.074
34.998	60.755
36.003	62.743
37.003	56.494
38.000	61.077
39.000	60.194
40.001	59.934
40.996	55.572
42.032	58.681
43.001	63.048
44.006	58.104
45.007	58.094
46.006	57.752
47.003	55.060
48.006	60.114
49.007	58.436
50.003	58.227
50.996	51.757
52.035	56.299
53.001	59.932
54.003	59.974
55.003	52.195
56.004	57.694
57.003	57.952
58.002	61.055
58.999	55.561
60.004	57.905
61.003	57.852
62.003	59.094
63.024	57.781
63.995	58.285
64.998	60.512
66.007	58.823
67.002	57.884
68.003	57.637
68.997	54.823
69.999	60.373
71.026	56.664
72.007	60.646
73.005	59.012
74.006	57.936
75.003	54.358
76.007	60.811
77.008	58.536
78.004	59.030
79.006	57.379
80.001	53.763
81.011	60.093
82.008	58.871
82.996	53.132
83.999	58.120
85.004	58.104
86.001	59.733
87.007	60.431
87.996	11.829
