Time [s]	Current [nA]
0.000	25.226
0.992	43.947
1.997	49.945
3.042	45.641
4.001	49.630
4.992	42.276
5.997	45.513
6.994	47.839
7.998	48.003
9.001	51.042
9.995	43.557
10.997	47.999
11.995	48.392
12.997	49.696
14.014	46.505
14.996	46.126
16.001	47.206
16.995	47.279
17.995	46.595
18.997	49.895
20.001	50.294
20.996	44.518
21.996	47.595
22.994	47.590
24.041	51.189
24.993	45.269
26.002	51.582
26.997	44.619
27.995	49.394
28.995	49.795
29.997	51.492
31.002	52.433
31.997	45.523
32.997	49.495
34.006	54.603
35.006	45.541
35.995	53.281
37.003	54.260
37.998	48.136
38.998	52.395
39.995	52.753
40.998	54.332
42.003	55.815
43.028	52.580
44.002	49.995
45.001	53.548
45.940	57.990
47.003	54.651
47.999	50.597
48.998	54.249
50.002	54.178
50.997	54.969
52.002	57.407
53.015	50.143
53.997	55.799
55.001	54.875
55.997	55.170
56.999	54.585
58.003	57.464
59.000	52.051
60.002	56.481
61.001	55.450
61.994	56.792
62.940	48.304
64.019	16.866
64.996	28.759
65.999	40.615
66.999	46.495
67.998	51.847
68.996	51.498
70.000	56.767
71.000	55.894
72.003	55.029
73.003	54.994
74.027	55.951
74.998	52.518
76.000	56.538
76.999	55.550
77.999	54.395
78.996	54.659
80.003	56.896
80.999	52.404
82.002	55.428
82.997	54.869
84.006	54.504
85.021	54.531
86.000	54.234
87.004	56.568
87.942	54.685
89.002	57.164
89.998	55.416
91.005	58.088
92.001	52.505
93.028	54.717
94.001	58.268
94.998	56.063
96.002	55.727
97.004	59.176
97.995	5.953
