Time [s]	Current [nA]
0.000	41.316
1.011	52.418
2.004	46.420
3.006	50.694
4.004	51.097
5.007	52.689
6.009	54.186
7.017	51.483
8.007	47.369
9.005	51.798
10.012	55.704
11.007	48.337
12.011	53.680
13.008	46.736
14.006	50.897
15.002	51.754
16.011	52.027
17.047	49.512
18.012	54.502
19.008	46.582
20.004	50.497
21.005	50.045
22.003	53.001
23.011	53.566
24.006	46.528
25.005	51.097
26.004	50.045
27.018	50.882
28.015	50.847
29.006	47.725
30.007	50.445
31.002	49.342
32.006	49.397
33.004	51.798
34.012	52.376
35.008	45.322
35.951	51.745
37.009	46.309
38.029	48.623
39.006	51.786
40.012	51.188
41.012	45.795
42.007	49.543
42.950	52.381
44.006	49.048
45.013	52.182
46.033	49.897
47.014	45.969
48.008	49.995
49.008	49.295
50.009	51.443
51.005	47.485
52.006	49.845
53.006	49.295
54.006	49.395
55.010	51.141
56.014	52.883
57.038	48.823
58.012	46.402
59.008	48.891
60.007	49.144
61.006	51.346
62.013	51.931
62.951	47.543
64.007	45.355
64.951	50.948
66.012	48.203
67.035	49.946
68.002	47.358
69.009	49.846
70.009	49.395
71.008	49.645
72.007	51.546
73.014	51.931
74.006	45.358
75.007	48.895
76.006	49.545
77.013	51.435
78.021	50.094
79.008	48.526
80.009	50.345
81.009	48.995
82.010	50.145
83.011	52.342
84.014	52.637
85.009	45.368
86.008	49.444
87.007	49.144
88.035	48.536
89.010	53.431
90.016	51.883
91.010	44.865
92.009	49.344
92.952	52.699
94.010	48.199
95.015	52.086
95.953	47.117
96.953	48.995
98.008	46.346
99.011	48.849
100.758	14.194
