Time [s]	Current [nA]
0.000	19.136
0.961	48.798
1.902	53.661
2.963	51.173
3.963	54.095
4.960	55.160
5.965	57.365
6.962	52.452
7.907	59.465
8.902	51.151
9.963	56.922
10.962	55.750
11.956	52.208
12.962	56.953
13.963	57.637
14.963	56.094
15.962	55.806
16.956	52.107
17.972	56.195
18.964	57.051
19.969	56.910
20.969	56.294
21.965	56.420
22.962	52.853
23.969	58.882
24.958	51.663
25.958	56.351
26.957	55.950
27.961	57.863
28.987	55.550
29.954	55.320
30.962	55.947
31.903	60.355
32.960	54.583
33.963	59.515
34.961	53.201
35.966	56.568
36.966	56.294
37.962	56.822
38.986	56.440
39.966	60.198
40.963	53.154
41.964	58.336
42.963	57.852
43.903	55.101
44.959	56.150
45.962	58.278
46.968	56.157
47.970	56.182
48.973	55.927
49.970	58.169
50.962	54.732
51.970	59.716
52.966	58.629
53.958	52.213
54.953	58.286
55.964	58.014
56.971	58.584
57.987	56.294
58.967	58.464
59.967	56.294
60.966	56.151
61.962	53.208
62.966	60.153
63.962	52.505
64.961	57.151
65.960	57.008
66.959	58.753
67.998	57.357
68.970	59.768
69.963	52.361
70.962	58.252
71.963	57.437
72.968	59.198
73.966	61.016
74.963	52.653
75.964	58.094
76.963	58.853
77.981	58.639
78.974	59.309
79.967	55.785
80.963	58.629
81.968	58.004
82.962	58.143
83.962	54.895
84.964	59.575
85.964	58.953
86.965	57.637
87.965	57.594
88.973	21.625
