Time [s]	Current [nA]
0.000	23.305
0.997	48.641
2.000	53.135
2.998	53.502
3.998	55.694
4.994	49.995
5.938	56.622
7.000	49.901
8.001	52.942
8.997	53.208
10.001	55.970
10.997	49.794
11.996	53.949
12.998	52.989
13.999	52.742
14.995	49.794
16.000	53.979
17.021	51.709
18.005	54.669
19.003	52.700
20.004	52.442
21.000	48.991
22.001	54.440
23.003	53.188
24.004	53.042
25.001	52.806
25.939	52.127
26.961	51.463
28.002	52.156
29.001	47.843
29.997	52.706
31.002	52.532
31.999	55.361
32.994	49.442
34.001	53.421
34.997	52.003
35.940	56.364
37.028	50.179
38.001	54.979
38.998	49.443
39.997	52.848
40.999	53.188
42.004	53.030
42.997	49.945
43.997	54.795
45.005	53.222
46.002	52.552
46.998	46.180
48.034	50.767
49.004	56.798
49.997	49.844
51.003	52.380
52.002	51.947
52.998	52.003
54.002	54.477
54.998	48.690
56.028	56.554
57.002	48.455
57.998	52.505
58.998	52.595
60.002	54.277
60.998	48.991
61.998	53.095
63.001	51.540
64.002	52.143
64.997	49.543
66.001	54.132
67.025	52.046
68.007	54.577
69.003	53.107
70.003	52.695
70.999	49.493
72.007	54.558
73.002	52.658
74.002	52.095
74.995	47.025
75.997	54.041
77.031	52.316
78.003	49.789
79.003	52.295
80.003	51.095
81.003	51.595
82.002	54.349
82.998	48.891
84.003	52.532
84.999	51.601
85.999	51.346
87.021	52.637
88.012	53.173
89.004	49.390
90.001	52.753
91.000	51.947
91.999	51.046
93.003	54.178
93.941	51.274
95.008	48.869
95.995	24.922
