Time [s]	Current [nA]
0.000	6.699
0.979	48.514
1.976	44.930
2.979	49.048
3.917	46.477
4.978	49.288
5.984	49.149
6.974	45.046
7.978	48.103
8.979	47.747
9.977	47.991
11.008	47.134
11.979	46.854
12.982	50.643
13.983	48.646
14.979	48.790
15.967	43.765
16.977	49.005
17.980	49.746
18.986	22.662
19.981	30.148
20.975	40.841
21.975	46.695
22.976	50.744
23.973	46.635
24.979	47.709
25.980	46.295
26.980	46.495
27.983	48.849
28.976	43.802
29.977	46.549
30.980	46.954
31.975	47.131
32.975	46.895
33.973	48.492
34.980	49.151
35.982	43.652
36.981	47.943
37.981	47.595
38.981	49.495
40.015	46.901
40.982	45.704
41.981	48.043
42.918	50.902
43.980	44.911
44.983	49.945
45.976	44.955
46.981	48.453
47.977	48.690
48.973	48.891
49.993	49.995
50.996	49.447
51.976	46.526
52.984	49.301
53.981	48.641
54.980	48.644
55.975	46.072
56.977	50.594
57.985	49.301
58.982	48.240
59.981	48.544
60.919	47.223
61.982	48.067
62.975	50.952
63.981	49.697
64.980	49.044
65.981	48.895
66.976	46.126
67.977	51.643
69.000	48.773
69.985	50.655
70.981	48.891
71.982	49.146
72.982	46.695
73.980	51.798
74.985	49.746
75.986	49.895
76.985	49.945
77.981	47.485
78.986	52.234
79.990	49.597
80.986	50.999
81.982	50.999
82.977	45.322
83.979	51.691
84.982	53.036
85.983	46.295
86.982	50.345
87.983	50.145
88.986	52.936
90.019	49.947
90.983	48.647
91.983	51.095
92.983	50.395
93.983	50.895
94.985	53.288
95.976	48.076
96.983	51.137
97.978	51.251
98.979	50.744
100.004	51.507
100.994	51.914
101.983	48.731
102.983	50.795
104.051	30.896
