Time [s]	Current [nA]
0.000	40.965
0.998	52.800
1.996	50.997
2.997	51.144
3.995	51.097
5.001	53.275
6.023	50.925
6.996	48.094
7.998	50.993
8.995	50.446
9.995	50.895
11.001	53.573
11.998	48.140
12.996	51.097
14.000	43.422
14.997	42.122
16.028	40.967
16.996	40.389
17.998	43.708
19.000	43.808
19.999	43.239
20.996	41.721
21.993	40.417
22.999	45.025
23.998	44.840
24.995	43.526
26.005	43.900
27.015	44.550
27.998	44.146
28.998	47.295
30.002	45.015
31.001	46.041
32.000	44.840
32.939	45.576
33.998	45.605
35.013	46.938
36.005	47.576
37.001	46.080
38.001	44.896
38.998	43.426
39.997	49.244
41.001	48.103
41.996	47.432
42.994	47.390
44.002	49.400
45.010	43.690
46.004	47.681
47.002	48.492
48.001	47.743
48.999	47.991
49.998	46.041
50.996	49.995
51.998	48.498
52.995	47.939
53.998	48.350
55.002	46.708
56.043	18.652
57.001	26.302
58.001	38.996
58.999	45.987
60.003	48.501
60.995	47.475
62.000	50.841
62.998	49.694
63.998	49.195
64.999	49.146
66.025	49.263
67.000	46.559
67.998	51.398
69.000	50.594
70.002	49.596
71.002	49.495
71.998	46.883
73.000	51.093
74.000	50.795
75.000	49.595
76.000	50.145
77.022	49.212
77.999	49.739
78.998	52.647
80.001	51.042
81.001	50.495
81.942	53.555
82.995	45.864
84.000	52.632
85.015	50.488
86.002	52.173
87.004	50.294
87.998	51.001
89.003	52.930
90.004	48.347
91.000	52.304
91.999	50.646
93.005	50.393
93.996	48.835
95.011	52.212
96.004	52.414
97.003	51.546
98.003	50.095
98.998	50.950
99.996	48.492
101.001	52.731
102.003	51.991
102.997	50.800
104.094	38.100
