Time [s]	Current [nA]
0.000	17.631
1.005	49.249
2.002	45.331
3.020	47.245
4.008	49.388
5.006	40.818
6.006	38.096
7.002	33.832
8.005	38.879
8.997	33.868
10.001	35.753
11.001	36.796
11.997	37.647
12.943	36.783
14.010	38.984
15.000	34.037
16.002	37.758
17.002	37.796
17.944	38.000
19.005	42.032
19.998	36.149
20.999	38.358
22.006	41.902
23.002	36.342
24.043	37.940
24.997	38.256
26.002	40.235
27.000	40.677
28.001	41.255
29.000	42.238
30.006	41.845
30.997	37.534
32.002	42.284
32.998	41.562
34.015	41.785
35.012	42.164
36.006	45.368
36.945	40.890
38.002	39.353
38.996	42.048
40.003	44.286
41.007	45.015
42.002	38.891
42.994	42.637
44.006	47.031
45.026	39.348
46.002	46.307
47.006	45.613
48.000	39.231
48.998	44.284
50.003	43.876
51.003	45.995
52.006	46.257
53.020	43.783
54.007	40.320
55.012	43.422
56.005	44.104
57.007	47.301
58.005	41.880
59.004	45.641
60.003	45.441
61.007	46.808
62.001	43.758
63.005	47.605
64.033	44.645
65.003	47.109
66.005	44.851
67.002	45.733
68.009	47.463
69.004	42.709
70.005	46.749
70.998	46.521
72.007	46.477
73.008	49.046
74.040	41.566
74.997	50.883
76.005	47.562
77.006	47.048
78.003	47.337
79.003	45.295
79.947	52.113
81.008	44.859
82.004	47.786
83.004	47.795
84.023	49.063
85.017	43.198
86.007	50.298
87.012	48.055
88.009	47.939
89.009	48.295
90.005	45.979
91.009	51.091
92.004	44.619
93.002	48.693
94.010	52.772
95.047	48.161
95.948	44.058
97.011	50.700
98.003	44.754
99.004	48.147
100.003	48.043
101.006	50.444
102.013	50.938
103.014	49.446
104.002	43.720
104.947	51.952
106.012	50.183
107.006	44.764
108.010	50.095
109.005	44.619
110.014	53.315
111.006	44.250
112.007	50.544
113.074	33.924
