Time [s]	Current [nA]
0.000	34.401
1.001	56.338
1.938	57.305
3.000	57.716
4.000	52.795
5.001	56.994
6.001	57.094
7.001	59.594
7.939	56.924
9.021	59.236
10.001	53.770
11.001	57.394
12.002	57.037
13.004	59.675
13.995	52.366
15.002	57.151
16.002	56.594
17.001	56.751
18.005	58.759
19.022	57.811
20.001	51.272
21.001	55.894
22.001	55.394
23.001	56.294
24.005	59.556
25.003	53.856
25.999	56.520
26.999	55.694
27.996	55.260
29.015	57.698
30.011	57.926
30.999	53.740
32.001	58.078
33.002	57.037
34.001	56.851
34.994	53.972
35.999	59.456
37.000	58.735
37.999	58.252
39.000	56.638
40.028	56.804
41.002	56.155
42.002	61.094
43.005	57.920
44.005	57.494
45.006	57.894
46.003	56.363
47.006	61.609
48.017	57.957
49.006	57.426
50.010	56.966
51.006	56.922
52.002	53.408
53.006	59.357
54.006	57.994
55.002	58.629
55.995	53.523
56.999	60.153
57.998	54.149
59.022	64.056
60.003	54.225
61.003	58.094
62.003	57.494
63.005	60.972
63.999	54.522
64.996	59.071
65.996	57.852
67.001	58.004
68.004	61.210
69.021	52.404
70.001	59.688
71.000	57.752
72.002	56.182
73.002	57.594
73.993	53.880
74.998	59.497
76.003	58.759
77.007	57.464
78.006	57.752
79.025	59.562
80.008	52.792
81.007	59.153
82.006	47.343
83.004	44.985
84.008	44.418
84.942	44.642
86.013	27.848
86.942	9.364
88.004	18.077
89.005	28.069
90.028	34.992
91.007	38.198
