Time [s]	Current [nA]
0.000	6.557
0.992	37.093
1.993	49.945
2.935	59.973
3.990	57.245
4.997	62.754
5.993	54.668
6.994	58.436
7.993	59.153
9.041	63.829
9.997	57.107
10.991	55.427
11.993	58.976
12.993	58.394
13.993	58.994
14.993	60.794
15.991	56.765
17.025	64.500
17.997	54.521
18.996	59.754
19.997	59.335
20.998	61.832
21.995	55.461
22.996	60.434
23.936	55.420
24.997	58.807
25.992	54.723
27.005	58.829
28.004	58.953
28.998	58.948
29.994	58.930
30.997	58.419
32.003	61.028
32.996	55.382
33.997	60.034
34.996	58.353
35.996	59.053
36.994	55.105
38.013	58.777
38.997	62.494
39.994	59.472
40.937	55.668
41.996	59.390
42.937	57.699
43.996	56.840
44.998	60.074
45.998	58.853
46.999	57.936
48.015	59.837
48.996	53.613
49.998	60.972
50.998	58.994
51.996	57.810
52.994	58.010
53.994	54.595
54.998	60.651
55.938	57.822
57.000	60.540
58.002	58.976
59.023	56.018
59.996	57.959
60.938	63.582
61.998	56.598
62.999	58.635
63.996	57.567
64.994	54.904
65.998	59.914
67.012	58.771
68.004	59.772
69.004	58.194
70.003	57.652
71.000	54.859
72.003	61.111
73.000	59.172
73.996	52.706
74.938	62.202
75.992	57.259
77.035	59.055
77.996	54.833
78.996	59.194
79.939	62.030
80.996	54.488
82.007	58.352
82.995	55.561
83.995	57.994
84.996	56.937
85.997	58.194
86.992	6.432
