Time [s]	Current [nA]
0.000	24.610
0.998	47.590
2.002	53.979
2.997	48.739
3.997	52.895
4.996	52.147
6.000	53.634
7.012	50.884
8.005	54.778
8.995	46.662
9.996	51.144
10.939	55.138
11.994	50.990
13.003	54.504
13.993	47.773
14.995	52.290
15.995	53.348
17.025	51.937
17.996	57.770
19.002	57.549
19.995	50.549
20.996	55.739
21.996	56.094
22.998	58.178
24.001	58.718
25.021	55.147
26.003	51.217
26.998	57.080
27.940	61.140
29.002	55.644
29.998	52.806
30.999	57.337
31.994	56.979
32.995	56.238
34.003	59.419
34.999	54.111
36.012	56.714
37.001	58.033
38.003	55.783
39.001	56.908
40.002	59.135
40.999	53.957
41.997	59.213
42.998	57.337
43.994	58.026
45.001	61.464
45.941	58.248
46.995	57.300
48.001	59.934
49.002	59.335
50.001	58.453
50.991	55.247
52.002	60.627
53.003	60.034
53.997	59.350
54.999	59.375
55.995	56.778
57.034	64.864
57.998	56.322
59.006	60.311
60.001	58.989
61.001	59.094
61.991	57.772
62.999	61.601
64.001	61.072
65.001	59.294
65.991	59.751
67.039	58.868
67.997	58.762
68.998	62.631
70.015	60.269
71.003	61.026
72.002	59.554
72.999	56.865
74.000	61.832
75.004	60.552
76.004	60.254
77.004	60.294
78.003	60.354
79.003	63.494
80.000	57.266
81.003	62.207
82.004	60.134
82.999	60.094
83.942	61.182
85.000	59.729
86.025	59.174
87.002	62.634
87.996	6.941
