Time [s]	Current [nA]
0.000	58.344
1.009	63.522
2.033	61.713
3.012	67.920
4.005	57.698
5.017	68.144
6.005	56.067
7.008	64.899
8.016	64.577
9.005	57.830
10.012	67.322
11.005	56.490
12.035	61.741
13.006	66.008
13.950	63.341
15.010	60.239
16.001	62.759
17.014	67.812
18.009	58.487
19.013	64.934
20.007	56.936
21.006	61.455
22.010	61.149
22.951	65.349
24.009	61.998
25.013	63.403
26.009	57.223
26.951	65.811
27.951	61.794
29.010	60.806
30.013	64.799
31.029	61.116
32.013	56.397
33.009	61.339
34.006	61.378
35.011	62.643
36.014	64.400
37.007	56.792
38.009	62.070
39.016	67.024
40.010	57.137
41.018	63.486
42.017	62.156
43.006	55.202
44.008	60.872
45.011	60.273
46.010	63.057
47.017	55.506
48.014	51.750
49.009	44.719
50.017	53.368
51.010	46.622
52.040	49.121
53.008	49.892
54.014	50.790
55.010	50.749
56.008	50.997
56.953	57.455
58.014	52.210
58.952	51.274
60.009	49.948
61.009	52.895
62.022	52.907
63.019	52.853
63.952	53.800
64.952	52.995
66.010	50.137
67.010	53.695
68.015	56.512
69.015	57.094
69.953	53.086
71.009	51.415
72.008	55.450
73.046	60.302
74.005	52.549
75.017	58.253
75.953	24.250
76.953	19.898
78.010	32.542
79.010	46.395
80.007	48.440
81.028	59.152
81.953	55.454
83.009	53.214
84.009	56.494
84.953	62.070
85.954	54.595
86.954	58.494
88.007	0.380
