Time [s]	Current [nA]
0.000	12.744
1.065	60.088
2.058	59.309
3.060	63.766
4.060	61.794
5.061	61.394
6.057	57.625
7.066	63.720
8.073	60.868
9.067	61.563
10.061	61.060
11.060	60.454
12.056	57.123
13.056	63.594
14.059	62.407
15.062	60.772
16.061	60.554
17.057	56.621
18.081	59.564
19.060	64.243
20.062	61.072
21.061	60.354
22.062	60.633
23.058	56.922
24.057	62.456
25.062	61.548
26.063	59.834
27.062	60.655
28.101	61.688
29.001	61.105
30.060	59.956
31.066	61.226
32.062	61.038
33.062	60.794
34.001	59.738
35.061	59.862
36.068	61.761
37.062	59.753
38.062	59.494
39.083	60.033
40.059	57.986
41.063	62.544
42.063	62.194
43.060	60.074
44.060	60.794
45.065	63.440
46.059	58.646
47.079	61.955
48.068	61.571
49.062	61.664
50.063	60.334
51.059	58.026
52.057	62.318
53.062	61.088
54.061	60.154
55.064	59.575
56.061	57.768
57.063	62.469
58.083	59.406
59.069	64.091
60.069	59.794
61.065	60.536
62.062	57.166
63.065	64.101
64.060	56.276
65.060	60.554
66.060	61.194
67.058	62.819
68.091	60.691
69.060	59.334
70.060	61.594
71.060	61.594
72.060	61.594
73.057	63.083
74.065	64.081
75.003	59.909
76.067	58.226
77.066	62.356
78.088	61.442
79.070	64.352
80.061	58.117
81.067	61.823
82.060	62.532
83.057	6.719
