Time [s]	Current [nA]
0.000	49.445
0.997	57.968
1.994	57.868
3.000	60.431
4.006	54.269
4.995	60.257
5.998	58.078
6.995	57.667
7.936	55.467
8.991	57.340
9.991	60.094
10.997	58.443
11.995	57.109
12.993	57.710
13.990	54.659
14.935	62.533
15.996	57.164
16.997	58.036
17.994	57.467
18.994	58.494
19.993	54.949
20.994	60.034
21.998	59.755
22.996	57.710
23.997	57.337
25.026	57.679
25.994	54.540
26.994	59.994
27.995	57.936
28.998	57.721
29.994	57.123
30.998	59.058
31.995	52.853
32.936	55.999
33.997	59.278
34.999	57.280
36.023	55.615
37.000	56.084
37.996	59.934
39.003	57.690
40.002	56.951
40.997	56.678
41.994	53.154
42.996	58.278
44.006	56.727
44.936	55.478
45.937	56.594
46.995	58.501
47.937	57.001
48.996	56.274
49.937	56.636
50.994	59.313
51.998	56.568
52.992	55.125
53.937	62.639
54.998	55.225
56.002	57.322
56.938	54.802
57.998	59.334
58.995	54.057
59.938	57.046
60.998	59.334
61.997	57.352
62.995	57.810
63.993	54.804
65.038	63.499
66.000	55.712
67.003	58.120
68.003	58.294
68.999	57.524
69.995	40.659
70.995	24.398
72.000	37.608
72.997	47.337
73.997	53.595
75.031	55.174
75.939	59.355
76.992	56.120
77.998	56.953
78.997	56.351
79.938	54.724
80.995	56.664
81.938	62.878
83.015	53.384
84.000	58.065
84.999	57.252
85.939	55.160
86.994	56.203
88.057	41.576
