Time [s]	Current [nA]
0.000	26.521
1.009	46.774
2.000	41.974
2.998	45.687
3.999	46.948
4.999	49.195
6.017	49.356
7.007	37.774
8.009	11.875
9.001	19.454
10.001	29.697
10.999	37.271
12.006	42.995
13.001	39.896
13.999	46.288
14.996	46.635
15.999	49.696
17.032	46.946
18.000	46.586
19.000	46.595
20.000	46.695
20.999	47.042
21.998	49.945
23.005	49.548
24.005	43.796
25.001	48.389
26.001	47.943
27.018	47.095
28.004	49.488
29.000	45.779
29.999	47.843
31.000	47.148
31.999	46.442
33.000	48.147
33.998	43.483
35.006	47.165
36.001	46.428
37.000	46.442
38.024	45.406
39.005	50.352
39.999	44.362
41.007	47.317
42.001	46.977
43.006	47.557
44.000	49.391
45.007	49.399
46.017	42.867
47.007	49.187
48.002	48.136
49.000	48.292
49.944	48.936
51.006	51.784
52.007	44.351
53.002	48.136
54.003	48.247
54.999	50.698
56.018	50.781
56.945	47.244
58.007	45.476
59.004	48.741
60.002	49.294
61.004	50.594
62.000	47.084
63.007	47.959
64.001	48.285
65.000	48.844
66.001	49.995
67.027	47.656
67.945	48.688
68.945	47.995
70.007	44.252
71.007	46.795
72.006	48.143
73.000	43.758
74.007	45.775
75.009	45.450
76.008	45.741
77.027	48.965
78.011	41.561
79.006	48.940
80.011	46.165
81.007	45.277
82.006	44.740
82.997	42.882
84.000	47.054
85.006	47.311
86.007	46.495
87.007	46.295
88.037	45.044
89.009	45.263
90.007	49.193
91.006	47.142
92.007	46.549
93.006	47.243
94.002	44.273
95.002	48.695
96.021	46.754
97.007	47.967
98.007	46.895
99.007	46.395
100.005	44.384
101.007	49.097
102.006	48.143
103.007	48.347
104.007	48.095
105.000	44.608
106.014	47.873
107.016	48.398
108.021	39.399
