Time [s]	Current [nA]
0.000	13.610
1.000	41.896
1.995	44.016
2.996	43.952
3.996	41.596
5.023	44.537
6.000	45.952
7.000	44.496
8.002	43.908
8.999	43.426
9.992	41.788
10.996	44.418
11.995	45.041
12.999	42.725
13.998	43.739
15.013	45.755
16.007	40.640
17.007	46.695
18.002	46.528
19.002	44.396
20.001	44.640
20.993	41.427
21.999	45.423
22.995	45.879
23.996	44.351
24.996	44.496
26.027	43.685
26.993	43.784
27.997	45.015
28.996	44.640
29.997	43.053
31.001	43.024
31.996	42.106
32.999	45.958
34.020	34.277
35.008	12.359
35.997	20.423
37.000	29.110
37.996	34.234
39.004	40.671
39.996	42.435
41.001	43.379
41.995	45.971
42.994	41.738
43.998	46.111
45.022	44.766
46.002	46.322
47.002	44.696
48.002	44.696
48.999	41.721
49.997	46.488
51.002	44.374
51.998	45.076
52.936	44.025
53.996	44.335
55.024	44.591
56.001	47.078
56.997	44.775
57.997	43.196
58.996	44.240
59.998	41.213
61.006	45.432
61.996	45.248
63.003	43.690
64.002	43.940
65.007	39.598
66.013	44.573
66.998	47.102
68.004	43.435
69.003	43.739
70.003	43.996
71.000	41.821
72.000	46.395
73.002	45.305
73.997	45.222
75.001	44.517
76.022	44.799
76.999	42.677
77.940	48.773
78.998	43.663
80.000	44.906
81.000	44.896
81.997	41.721
83.001	46.011
84.021	44.603
85.003	46.329
86.000	44.373
87.000	44.996
87.997	42.222
89.001	46.310
90.006	45.170
91.003	45.532
92.002	44.940
92.999	41.420
93.996	45.632
95.016	43.862
96.001	47.000
97.002	45.150
98.001	45.641
99.000	42.038
100.007	47.066
101.003	46.682
102.000	45.432
103.000	44.896
103.999	43.039
105.027	45.468
106.003	48.048
107.001	46.589
108.001	45.795
109.000	44.940
109.997	42.423
111.000	48.151
112.000	47.095
113.003	45.160
113.999	45.578
114.995	12.850
