Time [s]	Current [nA]
0.000	17.883
1.001	53.142
1.942	48.561
3.009	17.337
4.005	25.299
5.005	37.734
6.029	44.332
7.005	51.839
8.002	47.137
9.001	52.848
9.999	50.696
10.998	51.947
12.004	53.573
13.000	48.088
14.003	51.042
15.003	49.344
16.009	49.597
17.020	50.044
18.000	49.995
18.998	52.500
20.001	51.540
21.000	50.145
22.000	51.195
23.005	54.024
24.002	48.039
25.016	50.340
26.010	52.510
27.006	51.601
28.001	45.423
29.001	52.595
29.999	47.991
30.997	51.798
32.000	50.743
33.000	51.495
34.000	53.595
35.044	50.618
36.000	49.263
37.001	52.442
38.000	51.646
39.002	50.893
40.001	53.348
41.007	54.070
41.998	47.321
43.002	50.393
44.009	55.605
44.944	51.439
46.027	47.500
47.001	49.995
48.006	52.333
49.006	51.295
50.001	52.457
51.000	54.749
52.005	54.721
53.000	48.337
54.000	52.095
54.999	51.346
56.032	50.673
57.005	54.568
58.008	55.528
59.001	53.872
59.945	50.101
61.001	50.090
62.004	53.933
63.007	55.428
63.945	50.528
65.000	49.663
66.004	52.238
67.033	56.651
68.014	49.536
69.000	51.111
70.002	54.286
71.000	53.602
72.000	52.595
73.004	53.779
74.011	55.605
75.018	53.474
76.003	47.812
77.011	50.789
78.008	52.753
79.011	52.736
80.002	50.853
80.946	55.609
82.002	48.575
83.002	46.695
84.004	41.712
85.019	42.008
86.020	39.157
87.005	37.357
88.001	42.466
89.001	41.096
90.008	44.286
91.005	38.913
92.008	43.665
93.007	42.138
94.001	40.740
95.008	42.697
96.029	36.859
97.009	43.771
98.006	42.724
99.005	42.538
100.004	43.239
101.003	39.836
102.001	43.883
102.999	5.010
