Time [s]	Current [nA]
0.000	41.754
1.001	46.948
2.001	49.195
2.997	47.184
3.935	51.594
4.990	48.431
5.936	53.222
6.936	51.295
8.023	52.249
8.936	47.531
9.998	53.949
10.994	46.782
11.994	49.795
12.992	50.396
13.995	50.743
14.936	50.154
16.008	52.469
16.998	46.561
17.936	54.152
18.936	50.695
19.999	49.854
20.992	47.427
21.996	51.190
22.997	49.945
24.002	49.348
24.992	47.470
26.016	50.337
27.002	52.429
27.937	48.124
28.992	48.052
29.999	53.917
30.996	46.635
31.999	52.437
32.937	47.330
33.993	46.586
34.993	48.995
35.997	52.039
37.016	48.474
37.992	48.766
39.000	49.400
39.995	48.638
40.995	49.295
41.995	51.795
42.991	47.184
43.995	50.194
44.937	52.118
45.993	48.147
47.027	49.802
47.999	53.595
49.000	51.344
49.995	46.428
50.995	49.995
51.937	53.073
52.999	50.089
53.995	48.088
54.998	51.540
56.001	50.294
57.003	50.993
58.003	51.095
59.004	53.841
59.996	48.685
60.995	51.046
61.997	49.396
62.995	49.394
64.000	50.841
64.997	46.034
66.015	49.258
67.005	51.712
68.005	49.895
69.000	49.442
69.996	45.377
71.000	51.588
71.992	44.552
72.996	47.306
73.988	48.080
74.997	49.450
76.026	48.828
77.001	50.456
77.993	44.250
78.994	49.645
79.993	49.344
80.997	50.692
82.001	52.286
82.939	47.650
83.996	45.880
85.003	53.719
86.004	46.295
87.002	50.596
87.993	48.229
89.002	50.639
90.001	49.745
90.997	50.196
92.002	51.935
92.998	45.678
93.999	49.945
95.001	49.496
96.000	49.795
97.026	48.923
98.003	49.125
99.005	52.789
100.139	37.121
