Time [s]	Current [nA]
0.000	22.428
0.997	52.853
1.994	53.555
3.000	54.468
4.003	48.250
5.005	52.342
6.002	53.054
7.004	52.091
8.003	51.947
9.000	48.340
9.999	55.050
10.996	46.334
11.995	52.547
12.999	52.086
13.996	54.057
15.029	51.255
16.001	54.521
17.001	47.295
18.000	52.047
19.001	52.143
20.003	53.488
20.994	50.146
21.995	52.342
22.999	52.186
24.000	52.942
25.020	53.773
26.008	55.561
27.001	50.247
28.001	53.995
28.998	53.254
29.998	53.895
30.990	50.902
31.998	54.360
33.000	53.488
33.999	53.348
35.004	53.328
36.036	51.789
37.002	51.962
38.005	54.930
39.001	53.910
40.001	52.795
40.994	48.334
41.998	54.676
43.004	55.462
44.010	53.673
44.996	48.778
45.997	53.195
47.001	53.580
48.000	56.151
49.001	56.138
49.997	48.891
50.996	53.548
52.001	53.129
52.999	56.006
53.997	50.296
55.029	57.608
56.003	49.071
56.999	53.208
57.999	53.695
59.002	56.425
60.000	50.396
60.940	52.335
61.998	54.626
62.998	52.795
64.002	55.572
64.940	51.487
65.999	51.791
67.007	54.856
68.006	53.348
69.007	53.341
70.004	50.346
70.998	54.522
72.006	52.673
73.007	51.943
73.940	50.263
75.020	48.651
76.004	54.060
77.007	54.332
78.004	53.355
79.003	51.747
79.997	46.776
80.998	54.940
82.003	55.119
82.998	48.337
84.004	52.281
85.003	53.248
86.016	52.564
87.004	56.573
88.000	49.393
89.001	53.441
89.999	52.700
91.001	53.188
91.998	50.346
93.003	55.019
94.018	51.325
95.077	31.849
