Time [s]	Current [nA]
0.000	26.829
0.997	42.724
2.000	49.048
2.995	41.604
3.996	46.049
4.996	45.495
6.023	49.898
6.999	44.258
8.003	47.306
8.995	42.334
9.994	46.642
10.993	46.642
11.997	47.206
13.000	48.549
14.013	45.603
15.002	42.607
15.996	46.575
16.996	46.495
18.000	49.298
19.001	49.945
19.997	43.470
20.994	47.036
21.997	47.154
22.997	48.895
24.009	49.106
25.005	47.432
25.993	43.214
26.997	46.908
27.996	47.443
28.998	49.097
29.939	47.285
30.997	45.364
31.996	47.243
32.996	47.195
33.995	49.044
35.035	45.520
36.002	50.047
36.997	43.312
37.996	46.242
38.997	46.848
39.999	47.700
41.001	49.296
42.002	43.752
42.997	47.734
43.996	47.643
45.010	48.761
46.007	48.641
47.003	52.003
48.003	44.196
48.994	47.725
49.940	49.889
50.999	46.832
52.002	51.540
52.994	44.754
53.996	48.498
55.002	51.585
56.026	40.661
56.999	48.813
58.003	47.306
58.997	41.948
59.997	44.995
61.003	48.603
62.000	42.624
63.002	48.398
64.026	45.601
64.997	42.014
65.996	45.587
66.997	45.650
68.002	47.458
68.997	44.116
69.997	46.395
70.999	44.606
71.993	46.776
72.997	47.505
74.003	47.908
75.023	45.923
76.000	43.906
77.000	45.995
78.000	44.696
79.003	47.553
80.000	42.122
81.001	46.349
82.000	45.341
82.998	45.186
84.003	46.861
85.020	41.039
86.001	46.988
87.001	45.895
88.000	44.840
88.942	43.308
89.997	44.356
91.000	46.556
92.004	46.111
92.997	45.615
94.000	44.462
95.010	46.035
96.004	40.379
96.997	47.427
98.001	45.812
98.997	44.674
99.998	44.851
101.004	46.914
102.002	42.180
103.001	45.841
103.995	45.066
104.998	45.658
106.033	44.483
107.000	45.083
108.070	36.632
