Time [s]	Current [nA]
0.000	11.245
1.000	46.895
1.997	45.432
2.998	48.746
4.001	48.649
4.999	49.093
6.006	48.703
6.999	46.118
7.941	53.179
9.007	46.900
10.005	49.995
11.006	48.746
12.006	49.395
13.003	46.736
14.006	51.640
14.996	45.147
15.994	48.842
16.997	49.148
18.001	50.991
19.024	48.480
19.998	46.813
21.003	49.348
21.999	49.292
23.002	49.347
24.003	51.244
24.997	46.575
26.000	48.598
26.999	48.043
27.994	48.940
29.029	47.821
29.996	46.738
31.003	50.243
32.002	49.445
33.008	47.808
34.007	48.343
34.997	45.955
35.997	49.945
36.998	48.147
38.005	46.569
39.003	47.190
40.015	47.723
40.999	45.930
42.003	50.294
43.007	49.198
44.007	49.695
45.008	49.095
46.005	46.435
47.009	51.688
47.943	46.890
49.009	50.558
50.005	48.288
51.003	39.074
52.000	35.002
53.004	38.243
54.000	32.426
55.000	35.796
55.999	36.970
56.999	37.796
58.026	37.192
59.005	39.833
59.999	33.598
60.995	36.342
61.943	37.444
62.998	35.447
64.005	38.824
64.999	34.001
66.001	36.560
67.001	37.196
67.944	41.141
69.034	33.942
70.000	36.849
71.004	37.546
72.004	37.896
73.005	38.558
74.009	40.534
75.000	37.231
76.005	40.135
77.006	39.457
78.006	39.496
79.030	39.840
80.009	43.816
81.006	38.311
82.003	41.119
83.000	41.420
84.003	39.278
85.007	43.322
85.997	38.217
86.944	37.694
88.005	42.314
89.012	20.653
90.023	10.484
91.005	19.957
92.009	30.575
93.009	35.996
94.010	37.459
95.010	41.037
96.004	41.445
97.007	46.855
98.018	43.121
99.008	40.097
100.007	43.639
101.007	43.796
102.006	46.242
103.000	40.539
104.001	44.351
104.998	44.128
105.999	43.696
107.004	45.269
108.031	44.786
109.007	46.409
110.008	41.954
111.007	45.441
112.007	45.495
113.010	47.054
114.003	43.198
115.007	46.708
116.012	38.044
