Time [s]	Current [nA]
0.000	41.202
0.996	42.666
2.000	46.011
2.997	41.220
3.994	41.621
4.996	33.530
5.996	33.030
6.938	32.587
7.996	32.794
9.011	32.115
10.004	34.337
11.004	34.497
12.004	34.997
12.997	32.122
14.000	35.689
14.995	31.354
15.997	34.762
16.994	34.299
18.002	36.901
19.024	36.591
20.002	36.090
20.994	32.456
21.996	35.226
22.996	35.896
23.996	37.896
25.001	38.504
25.939	35.856
26.995	33.614
27.997	35.625
28.997	37.096
30.016	35.129
30.995	37.075
32.002	37.533
33.002	37.596
33.993	37.131
34.997	38.940
36.006	40.770
36.998	35.380
37.994	37.948
38.994	38.596
40.039	43.536
40.998	37.744
41.939	41.547
42.996	38.691
43.994	39.275
45.001	43.789
45.998	37.546
47.002	42.127
48.000	36.169
48.998	41.178
50.002	41.032
51.014	44.166
52.000	38.029
53.002	43.409
53.997	37.383
55.002	45.170
56.004	41.754
56.998	39.231
58.002	44.418
59.014	40.609
60.002	38.356
60.994	42.838
62.010	46.354
62.997	40.523
64.001	44.916
64.997	39.353
65.995	43.526
66.999	43.123
68.001	44.706
69.008	46.569
70.000	39.915
70.996	44.975
71.996	43.196
72.997	43.752
74.000	44.362
75.002	45.604
76.004	39.756
76.999	43.111
77.994	43.413
79.000	45.125
80.042	42.318
80.997	42.509
81.998	43.952
82.997	43.739
83.996	43.539
85.003	44.385
86.003	46.742
87.003	45.895
88.001	43.683
88.999	44.284
90.027	46.104
91.001	41.474
91.998	46.535
92.999	45.250
94.000	44.052
94.998	44.985
96.004	48.055
97.001	43.025
97.999	35.668
98.998	11.610
99.998	20.398
101.029	29.580
102.008	40.752
103.001	38.063
104.001	43.996
104.998	45.031
106.003	44.418
107.004	47.747
108.002	42.781
109.011	44.792
109.942	44.356
111.004	46.794
112.003	45.641
113.004	46.649
114.001	41.922
115.002	45.750
116.005	44.606
116.998	46.219
118.005	47.364
118.943	45.731
120.012	42.652
121.003	46.211
122.004	45.050
123.078	27.558
