Time [s]	Current [nA]
0.000	18.521
0.999	39.335
2.000	41.654
3.023	40.758
4.000	41.347
5.002	45.450
6.004	44.107
7.002	42.381
8.001	42.638
9.005	43.621
10.003	40.277
11.016	43.530
12.010	44.563
13.010	43.196
14.006	43.470
15.004	41.019
16.007	46.855
16.998	41.166
18.000	43.409
19.002	44.606
20.007	46.662
21.045	45.468
22.012	14.476
23.006	15.793
24.006	28.597
25.007	39.196
26.010	44.861
27.006	43.269
28.004	48.592
29.004	48.295
30.000	48.489
31.007	50.839
32.025	43.316
33.001	52.454
34.011	48.807
35.011	48.544
36.008	49.042
37.004	44.674
38.006	51.192
39.001	45.121
40.000	48.744
41.000	49.195
42.025	49.458
43.004	51.578
44.007	52.936
45.002	46.072
45.998	50.397
47.002	49.895
48.005	51.839
49.008	53.534
50.000	46.467
51.001	50.544
52.004	51.540
53.024	51.269
54.006	56.003
55.000	49.794
56.008	52.726
57.005	53.756
58.003	53.301
59.009	54.368
60.005	47.987
61.015	52.173
62.007	53.926
63.007	51.295
64.006	52.247
65.008	53.341
66.006	49.093
67.006	52.695
67.998	52.616
69.002	51.588
70.008	54.865
71.011	49.447
72.005	53.717
73.007	52.989
74.006	51.847
75.012	53.328
76.009	51.249
76.947	54.685
78.012	55.487
79.009	54.157
80.009	54.195
81.006	50.647
82.030	52.534
83.009	57.502
84.010	49.645
85.010	54.449
86.010	53.995
87.012	56.781
88.006	51.102
89.007	54.640
90.002	54.266
91.001	54.049
92.030	53.736
93.009	57.604
94.006	51.249
95.008	55.839
96.008	54.195
97.009	54.041
97.999	51.510
99.006	55.605
100.001	54.668
101.011	53.163
102.007	54.111
103.013	0.696
