Time [s]	Current [nA]
0.000	49.645
1.018	56.582
2.007	60.364
2.997	52.323
3.992	56.784
5.000	56.151
5.996	59.538
7.003	59.484
8.000	51.755
8.996	57.028
9.999	56.730
11.010	58.457
12.016	57.555
12.997	55.556
14.004	57.398
14.999	56.884
15.942	60.339
16.996	56.357
18.003	59.782
18.999	52.711
19.999	57.400
20.997	57.415
22.032	55.556
22.998	61.594
23.999	54.845
25.004	58.010
25.998	57.545
26.997	57.157
27.941	63.347
29.002	57.022
30.000	52.705
31.001	56.244
32.003	16.467
32.999	23.092
33.996	38.415
34.996	44.200
35.997	52.747
36.995	54.309
37.997	57.685
38.995	60.421
39.940	58.095
41.024	60.978
42.002	54.294
42.998	59.036
43.994	59.438
45.002	60.913
45.994	55.645
47.001	58.689
47.997	58.635
48.998	58.342
50.002	61.554
51.021	53.189
51.944	64.897
52.939	54.271
53.998	60.623
55.000	58.184
55.996	56.024
56.996	61.500
58.000	59.661
58.996	58.735
59.997	58.541
61.004	61.370
62.026	58.611
62.996	56.598
63.939	57.476
64.998	60.529
65.995	58.977
66.995	56.400
67.998	61.017
68.996	60.721
69.995	58.559
70.995	59.000
72.039	57.759
72.938	61.624
73.998	58.396
74.999	59.940
75.996	58.877
76.993	58.676
77.993	56.500
78.998	61.493
79.999	60.639
80.998	58.759
81.996	59.218
82.997	59.241
83.993	56.827
84.997	61.355
85.998	59.840
86.993	59.095
87.937	6.992
