Time [s]	Current [nA]
0.000	35.015
1.003	51.944
1.995	45.464
2.995	49.800
3.994	49.349
5.020	48.538
5.995	52.718
7.000	51.443
7.993	45.015
9.000	53.625
10.001	49.550
10.996	46.332
11.998	51.597
13.011	49.062
13.995	45.122
14.993	48.798
15.993	49.100
16.996	50.947
17.999	52.144
18.994	45.126
19.992	48.998
20.999	53.724
21.995	46.586
23.006	51.830
24.024	48.919
25.004	42.653
25.991	10.740
26.999	18.948
27.990	27.245
28.998	38.889
29.988	39.192
30.990	44.311
31.936	51.586
32.994	49.149
34.018	50.293
34.997	53.013
35.993	46.185
36.936	52.704
38.000	51.880
38.995	46.030
39.999	50.100
40.936	45.998
41.994	44.234
42.993	46.947
44.001	48.214
44.936	47.380
45.992	46.591
46.992	47.097
47.992	46.795
48.989	47.438
49.994	48.552
50.997	50.045
51.993	43.312
52.992	47.042
53.992	46.795
55.018	46.097
55.993	50.456
56.998	49.846
57.994	43.771
58.993	47.843
59.994	48.247
60.989	49.945
61.999	49.747
63.015	48.027
63.999	44.406
65.002	47.553
65.999	48.340
67.001	50.294
67.998	45.131
68.995	48.140
69.993	47.791
70.996	47.353
71.993	46.180
72.992	49.444
74.022	47.083
75.003	50.352
76.003	47.795
77.000	47.839
77.996	44.875
78.999	49.845
79.992	43.500
80.994	47.101
81.995	47.195
82.996	49.146
84.029	48.011
85.000	49.738
85.992	43.342
86.991	47.643
87.991	48.095
88.996	49.746
89.991	46.428
90.994	48.649
91.993	47.791
93.000	52.031
93.997	44.930
95.044	46.032
96.000	52.924
96.996	43.771
97.995	47.943
98.993	47.791
99.995	49.596
100.990	46.629
101.993	48.398
102.993	47.795
103.991	47.590
105.032	52.060
105.992	10.624
