Time [s]	Current [nA]
0.000	7.299
0.998	37.872
2.002	40.135
3.015	34.350
3.997	40.933
4.997	38.896
5.999	38.258
6.996	38.211
8.001	39.598
8.992	36.323
10.005	38.792
10.999	38.125
11.997	38.173
13.039	38.000
13.992	38.611
14.992	40.296
15.999	38.962
16.997	38.974
17.995	38.774
19.002	40.612
19.999	36.807
20.997	39.675
21.996	38.735
22.997	39.057
24.009	39.028
24.997	38.154
25.994	41.462
26.939	38.938
27.939	39.796
28.999	40.373
30.003	41.430
30.994	37.837
32.011	39.524
33.001	40.804
34.000	39.636
34.997	39.314
36.002	41.430
37.000	38.072
37.999	41.037
38.997	40.076
39.994	39.715
40.994	38.296
42.006	40.707
43.000	40.439
44.001	40.455
44.997	39.454
45.998	39.396
46.995	38.111
47.994	41.838
48.998	40.733
49.996	40.677
50.996	40.496
52.002	42.938
53.024	36.102
53.998	43.425
54.999	41.055
55.999	40.336
57.002	40.475
58.002	43.096
58.999	38.913
59.998	41.337
60.997	41.037
61.998	40.655
63.021	40.954
63.996	38.560
64.999	42.468
65.999	41.037
66.941	42.883
67.999	38.276
69.003	42.526
69.996	38.667
71.000	41.430
72.001	40.755
73.007	40.553
74.020	40.667
74.998	40.282
75.996	42.824
77.002	41.348
78.000	40.777
78.996	40.859
80.003	42.895
81.004	21.376
82.024	8.725
83.003	17.669
83.997	22.030
84.998	30.666
85.998	36.233
86.996	34.966
87.997	41.355
88.998	41.554
90.005	45.179
91.000	39.293
92.027	41.865
92.997	39.171
93.998	41.654
94.990	41.125
95.997	40.553
97.000	42.668
98.004	43.422
98.998	37.622
99.998	41.096
100.997	41.137
102.012	42.065
103.018	41.845
103.998	39.792
105.004	41.149
106.000	41.001
106.999	40.837
107.996	42.824
109.004	43.349
109.999	37.785
110.998	40.737
111.998	40.696
113.028	40.287
114.003	43.996
114.996	39.070
115.999	41.413
116.999	40.896
118.002	40.774
118.999	42.222
120.008	42.117
121.012	41.430
121.999	37.180
122.943	42.898
123.999	38.348
125.000	42.353
126.005	42.725
127.017	26.282
