Time [s]	Current [nA]
0.000	14.839
0.944	43.322
2.005	46.178
3.005	44.796
4.001	41.763
5.005	46.157
6.007	45.804
6.945	43.066
8.009	46.048
9.009	44.696
10.002	42.191
11.006	46.410
12.009	44.961
13.005	44.775
13.944	42.914
15.006	47.780
16.021	40.292
17.004	47.605
18.010	41.845
19.005	41.805
20.005	41.796
21.003	39.575
22.006	43.565
23.009	42.568
24.009	42.296
25.006	42.365
26.026	43.329
27.007	38.834
28.010	43.764
29.010	41.896
30.011	16.382
31.010	8.708
32.004	16.598
33.006	26.145
34.010	32.069
35.012	35.661
36.010	37.772
37.016	42.839
38.003	41.941
39.006	45.658
40.010	43.820
41.005	43.714
42.006	43.852
43.000	41.243
44.001	45.650
45.033	42.867
46.011	45.803
47.008	44.730
48.004	40.458
49.008	45.613
50.000	41.730
51.004	44.517
52.004	43.896
53.004	44.196
54.003	46.142
55.024	45.192
56.009	40.808
57.009	44.196
58.009	43.996
59.009	43.596
60.010	46.149
61.008	41.379
62.008	43.996
63.007	43.940
64.004	43.827
65.025	44.015
66.017	45.358
67.008	41.873
68.009	44.052
69.009	43.496
70.005	43.771
71.009	45.215
72.003	41.646
73.009	44.031
74.008	43.839
75.010	44.151
76.025	42.754
77.014	46.608
78.004	41.410
79.008	44.119
80.005	43.827
81.004	43.639
82.006	45.804
83.004	41.379
84.036	47.379
85.009	40.325
86.010	43.352
87.005	43.915
88.005	45.395
89.002	41.220
90.010	44.142
91.006	43.972
92.006	43.496
93.010	45.115
94.025	45.808
95.005	40.302
96.010	43.322
97.006	43.972
98.006	43.796
99.009	45.858
100.005	41.462
101.010	44.573
102.010	44.096
103.005	43.614
104.002	45.231
105.035	42.922
106.006	42.735
107.006	44.096
108.006	43.496
109.006	44.096
110.009	45.359
111.006	42.122
112.006	44.296
113.005	43.940
114.006	43.952
115.041	43.419
116.009	47.309
117.007	41.880
118.003	4.919
