Time [s]	Current [nA]
0.000	7.491
1.000	40.096
2.066	46.243
3.059	40.983
4.055	43.871
5.058	43.509
6.058	43.396
7.064	45.323
8.055	41.267
9.061	43.336
10.061	43.296
11.061	43.496
12.080	41.605
13.055	42.355
14.057	44.706
15.062	43.820
16.059	43.225
17.060	42.953
18.063	45.359
19.060	40.618
20.076	43.303
21.066	45.046
22.068	44.008
23.063	43.815
24.060	40.718
25.064	45.359
26.059	38.891
27.059	42.596
28.059	42.896
29.056	44.830
30.081	42.825
31.063	44.293
32.057	39.332
33.058	43.053
34.056	42.881
35.060	43.964
36.064	44.916
37.060	38.852
38.060	42.996
39.059	42.939
40.064	43.578
41.085	42.503
42.057	42.383
43.064	43.392
44.060	43.168
45.062	31.765
46.059	8.324
47.002	16.329
48.062	23.488
49.062	30.597
50.063	35.661
51.097	35.490
52.002	44.084
53.061	42.394
54.064	44.662
55.062	43.526
56.065	43.665
57.059	41.243
58.062	44.961
59.079	43.162
60.069	44.339
61.069	43.296
62.065	43.470
63.062	39.916
64.064	44.706
65.060	39.092
66.060	42.596
67.061	42.953
68.062	44.651
69.068	44.727
70.070	42.611
71.065	39.494
72.065	42.996
73.065	43.296
74.065	44.696
75.055	40.643
76.061	42.739
77.054	42.594
78.060	42.441
79.060	44.796
80.089	42.367
81.066	45.441
82.057	39.148
83.060	42.867
84.058	42.681
85.062	44.063
86.065	45.060
87.060	39.192
88.059	42.338
89.067	46.523
90.075	39.381
91.071	42.968
92.067	45.277
93.004	41.725
94.059	39.996
95.068	46.226
96.064	40.357
97.005	43.354
98.062	40.866
99.062	42.196
100.069	45.676
101.089	37.349
102.065	45.795
103.060	40.096
104.061	42.453
105.062	42.296
106.061	42.038
107.064	43.465
108.060	40.859
109.083	45.743
110.067	38.716
111.068	42.054
112.064	42.365
113.067	44.263
114.064	39.314
115.074	42.513
116.066	42.234
117.064	42.180
118.060	40.157
119.071	43.022
120.123	22.621
