Time [s]	Current [nA]
0.000	19.668
0.998	49.193
1.995	49.644
2.936	49.836
3.994	47.727
4.997	50.145
5.999	48.746
6.999	48.995
8.030	48.298
8.994	46.572
9.995	50.844
10.998	48.849
11.995	48.741
12.995	48.895
13.999	50.294
14.995	46.281
15.999	49.945
17.000	48.247
18.002	48.798
19.019	47.095
19.994	47.175
20.998	50.194
21.999	49.246
22.999	48.195
23.998	48.944
24.991	46.118
26.000	49.896
27.017	48.668
28.003	49.387
29.004	48.547
30.003	48.243
31.001	45.687
31.996	50.648
33.004	48.408
33.999	47.935
34.938	46.428
35.938	48.043
37.021	43.486
38.003	47.144
39.003	45.295
40.002	44.440
41.000	45.186
41.995	42.910
42.997	47.201
43.999	46.502
44.999	44.896
46.005	45.568
46.995	42.925
48.031	44.011
49.001	48.655
50.004	45.359
51.000	45.678
52.000	45.895
52.992	43.544
53.997	46.960
54.999	46.702
55.999	45.441
57.000	46.049
58.031	46.261
58.996	43.623
60.000	48.302
61.004	46.509
62.000	46.281
63.000	45.995
63.996	44.273
64.998	47.999
66.001	47.800
67.002	46.049
68.005	46.257
69.028	45.548
70.002	45.478
71.001	48.143
72.003	47.101
73.004	46.749
74.001	46.435
74.995	44.060
75.995	48.644
77.026	46.261
78.005	49.229
79.002	47.738
79.996	43.155
80.999	48.649
82.002	49.945
82.997	43.714
83.998	47.348
84.998	47.195
85.996	48.942
87.035	47.733
87.940	48.172
88.998	45.364
89.995	47.337
90.997	47.700
91.998	49.545
93.002	49.796
93.998	43.972
94.998	47.595
96.002	48.051
97.001	50.045
98.043	45.869
99.000	47.853
99.999	47.943
100.999	47.495
102.002	47.852
102.997	49.442
104.002	49.647
105.002	44.096
106.757	12.599
