Time [s]	Current [nA]
0.000	45.795
1.026	48.826
2.003	51.581
2.999	46.080
3.996	49.243
4.994	48.793
6.001	49.100
6.994	46.320
7.996	50.594
8.999	48.849
10.004	48.851
11.004	48.695
12.027	47.698
12.997	47.418
14.000	51.341
15.000	44.396
16.000	48.143
17.001	48.247
17.998	50.547
18.939	48.986
20.008	45.833
21.000	48.987
22.001	48.646
23.001	48.695
23.939	49.355
24.990	47.284
26.002	48.858
26.998	48.891
27.998	48.495
28.998	50.995
30.033	48.498
30.998	46.524
32.001	48.450
33.001	48.595
34.001	48.995
35.004	51.241
36.002	45.933
37.002	49.395
37.999	49.343
38.998	48.744
40.012	50.685
41.016	49.198
41.999	46.079
43.005	49.796
44.000	48.538
45.000	48.595
45.995	45.871
47.003	50.789
48.006	49.646
49.005	48.944
50.005	48.895
51.028	48.187
52.001	47.066
53.006	50.940
54.005	49.244
55.005	48.995
56.006	48.995
56.941	49.407
58.002	48.346
59.009	48.853
60.006	49.143
61.007	49.046
62.006	49.044
62.995	46.103
63.995	50.995
65.006	50.044
66.007	48.895
67.006	49.044
68.003	46.535
69.012	50.144
70.008	49.995
71.006	49.394
72.006	49.095
73.006	48.995
74.002	46.281
75.001	50.846
76.007	48.851
77.007	48.795
78.008	48.746
78.999	46.110
80.021	48.038
81.002	52.085
82.007	48.851
83.008	48.846
84.006	48.793
85.002	46.080
86.003	51.095
87.008	49.348
88.004	49.593
88.997	44.608
90.022	48.385
90.996	51.227
92.008	49.699
92.997	44.889
93.999	48.897
94.999	48.595
96.000	50.595
97.013	25.960
98.010	11.233
99.010	22.598
100.009	31.628
101.010	39.457
102.004	46.474
103.001	43.326
104.011	49.401
104.995	10.365
