Time [s]	Current [nA]
0.000	38.048
1.007	41.803
2.011	43.223
3.010	38.134
4.009	41.637
5.011	41.554
6.011	44.496
7.030	37.091
8.008	43.247
9.009	42.154
10.004	41.302
11.004	41.296
12.012	43.150
13.005	39.170
14.010	40.891
15.005	40.942
16.007	40.914
17.012	42.981
17.949	39.164
19.005	41.189
20.009	40.932
21.004	40.599
22.004	40.796
23.011	42.796
24.008	38.512
25.011	42.311
26.008	41.119
27.012	41.131
28.035	41.638
29.013	42.736
30.009	38.651
31.013	41.629
32.007	41.746
33.006	40.637
34.011	42.981
35.009	38.712
36.009	42.296
37.007	40.677
37.950	43.580
39.014	38.812
40.004	39.592
41.011	42.598
42.012	41.654
43.011	40.536
44.007	40.859
45.013	42.881
46.010	38.512
47.022	40.609
48.011	41.856
49.010	40.436
49.951	42.929
51.012	40.430
52.010	38.573
53.012	41.213
54.010	40.777
55.004	40.640
56.013	42.258
57.015	38.120
58.012	41.721
59.012	41.696
60.005	40.580
61.008	40.475
61.951	41.247
63.005	40.224
64.010	27.659
65.015	7.669
66.011	14.557
67.008	21.161
68.034	27.288
69.010	35.652
70.011	35.761
71.011	40.296
72.011	42.096
73.013	43.109
74.009	39.153
75.014	42.725
76.012	41.579
77.014	41.613
78.047	41.816
79.005	39.036
80.013	42.555
81.010	41.821
82.010	40.796
83.009	41.137
84.013	42.824
85.011	38.913
86.012	41.355
87.008	41.060
88.005	40.718
89.040	40.093
90.007	40.430
91.009	42.611
92.010	41.454
93.012	40.714
94.002	41.309
95.014	42.330
96.012	38.573
97.027	41.277
98.014	42.245
99.011	40.618
100.009	40.677
101.010	38.957
102.008	42.781
103.014	40.950
104.013	41.337
105.013	41.137
106.014	42.953
107.014	38.296
108.018	41.530
109.012	41.646
110.014	41.014
111.015	41.055
112.015	43.196
113.007	39.210
114.012	41.588
115.004	41.629
116.016	40.748
117.016	42.996
118.034	36.539
119.012	43.758
120.015	41.770
120.954	39.932
122.015	42.032
123.015	43.396
124.067	23.572
