Time [s]	Current [nA]
0.000	1.786
0.998	55.105
1.999	55.539
2.997	48.292
3.987	53.530
5.003	57.278
6.004	47.495
6.939	58.925
8.001	52.349
8.996	48.437
9.993	52.552
10.994	52.442
11.996	54.286
13.000	55.473
14.014	52.460
15.000	48.677
15.998	52.853
16.941	56.198
18.002	52.115
18.998	49.493
19.999	53.441
20.999	51.395
21.992	52.462
23.001	54.207
24.002	48.646
24.998	53.208
26.000	52.342
26.998	52.199
27.994	52.304
29.002	54.558
29.998	49.292
30.999	52.842
31.999	51.995
32.997	52.099
34.001	54.477
35.043	52.060
35.940	47.933
37.000	54.240
38.000	51.495
38.998	52.099
40.002	54.775
40.998	49.091
41.998	52.995
42.997	52.047
43.996	52.147
45.015	54.611
46.010	47.633
47.000	55.247
48.002	52.290
48.940	50.315
50.002	54.044
50.996	49.693
51.999	53.933
52.996	53.154
53.997	52.143
54.996	52.447
56.028	50.916
56.999	51.900
58.004	53.925
59.000	53.509
59.999	51.747
60.997	52.400
62.002	54.721
62.999	49.343
64.015	52.357
65.005	54.338
66.006	52.495
67.007	53.241
67.999	49.995
68.941	53.286
69.999	50.468
70.997	52.500
71.996	52.747
72.997	54.240
74.011	54.038
75.009	52.853
75.999	48.379
76.999	52.095
77.998	52.447
79.000	54.186
80.003	55.229
80.996	48.031
81.997	52.043
82.996	52.247
84.000	53.979
85.028	52.186
86.004	55.425
86.997	48.132
87.997	52.195
88.999	52.190
90.002	54.332
91.004	55.384
91.998	47.983
92.999	52.043
93.998	52.147
95.010	53.453
95.996	20.100
