Time [s]	Current [nA]
0.000	8.011
0.988	47.465
1.986	46.789
2.984	44.685
3.993	47.864
4.987	47.983
5.990	47.001
6.984	46.977
7.984	46.695
8.985	44.351
9.988	14.455
10.987	13.712
11.984	23.568
12.980	31.925
13.993	39.779
15.032	40.747
15.931	45.157
16.990	45.793
17.989	47.142
18.989	47.495
19.993	49.895
20.989	44.975
21.991	48.398
22.988	46.936
23.981	46.924
25.005	47.991
25.995	42.824
26.989	49.090
27.992	47.553
28.988	46.782
29.986	46.488
30.993	48.952
31.931	47.117
32.992	44.953
33.992	46.195
34.931	45.256
36.043	46.530
36.989	47.035
37.991	48.598
38.994	47.353
39.989	46.327
40.992	46.755
41.931	46.534
42.986	45.967
44.013	46.344
44.997	48.369
46.002	47.007
46.993	47.725
47.991	44.184
48.994	49.347
49.990	42.867
50.989	46.542
51.988	46.642
52.990	48.199
53.993	48.350
55.022	45.326
55.987	43.726
56.986	46.242
57.932	48.938
58.986	46.105
59.994	48.507
60.989	42.810
61.989	46.295
62.987	46.488
63.990	48.051
65.019	47.174
65.988	44.371
66.988	47.095
67.987	46.742
68.990	46.356
69.994	47.904
70.995	49.046
71.988	42.695
72.990	46.303
73.988	46.388
74.995	47.860
76.014	46.164
76.991	46.362
77.995	46.708
78.990	46.528
79.990	46.495
80.988	48.592
81.996	48.904
82.933	45.460
83.990	43.799
84.984	47.178
86.027	50.667
86.989	44.798
87.989	44.796
88.986	47.438
89.989	46.456
90.990	46.649
91.990	48.495
92.995	49.050
94.011	46.944
94.991	43.159
95.991	46.342
96.988	46.435
97.990	48.897
98.989	44.340
99.991	46.902
100.989	46.689
101.989	46.895
102.996	47.761
103.997	50.145
105.004	46.867
105.993	43.113
106.990	46.635
107.991	46.049
108.995	48.601
109.987	23.385
