Time [s]	Current [nA]
0.000	46.495
0.999	54.349
1.992	51.656
2.994	55.683
3.934	53.399
4.996	56.680
5.997	53.795
7.011	48.516
7.994	56.047
8.996	56.781
9.992	49.292
10.992	53.795
11.993	53.841
12.993	55.494
13.997	56.170
14.994	49.042
15.994	54.149
16.996	53.687
18.005	53.414
19.001	56.721
19.992	50.752
20.996	53.879
21.996	53.495
22.998	53.388
23.993	56.175
24.990	51.148
26.021	58.052
26.998	23.744
27.998	18.398
28.995	30.488
30.002	42.300
30.998	44.273
31.995	51.249
32.989	52.409
33.994	53.626
34.993	51.446
36.013	54.263
37.001	56.877
38.002	54.840
39.001	53.949
40.002	53.841
40.998	50.497
41.998	55.594
42.998	55.594
43.993	48.638
44.993	54.195
45.996	56.481
47.039	51.864
47.999	53.745
49.000	54.240
50.000	53.795
50.995	54.266
51.998	56.824
52.995	50.346
53.992	54.659
54.995	53.235
55.997	54.340
57.017	54.798
57.999	50.199
59.002	56.026
59.937	52.615
60.991	51.418
61.995	53.779
62.996	55.639
63.991	51.352
65.023	57.996
66.001	49.279
67.001	53.395
68.000	53.648
69.002	56.282
69.995	50.851
70.999	53.879
71.999	53.795
72.999	53.595
74.002	56.126
74.994	50.801
76.026	57.899
76.996	50.098
77.992	54.312
78.995	53.733
80.000	55.815
80.996	50.296
81.996	54.495
82.999	53.833
84.002	53.933
84.995	50.750
85.938	57.956
87.003	51.920
88.004	54.240
89.000	54.211
90.000	53.395
90.996	50.196
92.000	56.568
92.995	48.739
94.002	53.123
94.991	25.781
