Time [s]	Current [nA]
0.000	8.446
1.003	57.322
1.999	50.899
3.008	54.405
4.005	55.461
5.006	54.195
6.023	48.373
7.002	57.502
8.003	55.839
9.002	49.244
9.999	53.555
10.999	53.495
12.002	55.328
13.003	55.839
13.998	49.040
15.001	53.687
16.003	53.089
17.008	53.129
18.002	56.332
18.999	50.045
20.000	53.841
20.999	53.248
21.999	53.495
23.002	55.229
24.008	55.859
25.029	53.328
26.008	49.535
27.000	54.027
28.004	53.779
28.996	51.205
30.000	55.074
31.002	54.086
32.000	53.301
33.004	53.282
34.003	56.251
35.024	48.132
36.001	55.982
37.004	54.132
38.001	53.455
38.999	53.401
40.003	56.170
41.000	50.446
42.005	54.223
43.004	53.148
43.942	52.020
45.008	56.896
46.025	53.190
47.001	51.532
48.008	55.208
49.003	53.562
50.004	53.541
50.999	50.648
52.001	55.184
53.000	54.549
53.999	53.448
54.998	53.949
56.041	52.202
57.001	53.224
58.000	55.450
59.004	54.377
60.008	54.377
61.008	54.195
62.000	51.104
63.004	56.767
64.023	53.675
65.005	49.893
66.002	54.111
66.999	54.659
68.006	56.201
68.998	51.104
70.005	53.917
71.004	53.648
71.996	53.926
73.006	55.836
74.002	49.995
74.943	57.699
76.005	52.021
77.005	52.795
78.000	53.663
79.007	56.002
80.003	50.497
81.002	54.449
82.002	53.195
82.998	53.810
84.006	55.848
85.036	47.517
86.001	57.300
87.006	54.422
88.005	53.548
89.004	52.647
90.008	55.572
91.003	50.347
92.005	54.086
93.004	53.248
93.997	15.608
