Time [s]	Current [nA]
0.000	21.057
1.003	57.920
2.002	55.750
3.001	56.050
3.942	56.317
5.001	54.437
6.026	55.214
6.943	56.374
8.008	57.459
9.009	55.539
10.000	52.972
11.000	57.794
12.004	56.468
12.943	53.456
14.001	57.272
14.999	51.097
16.012	55.232
17.004	55.438
18.003	54.149
19.004	54.240
20.003	54.049
20.999	51.200
21.997	55.806
23.003	55.064
24.004	53.841
25.005	53.895
26.006	55.938
26.944	52.553
28.005	53.152
29.004	54.149
30.005	53.541
31.003	54.403
31.993	51.005
33.001	55.451
34.003	55.084
35.005	53.641
36.004	53.949
37.028	55.268
38.005	50.353
39.004	56.351
40.010	38.366
41.004	15.290
42.005	25.872
43.000	34.770
44.002	45.105
45.006	50.444
46.004	51.398
47.005	53.941
48.030	53.361
49.005	53.636
50.004	57.151
51.004	55.095
52.004	54.595
53.003	55.050
54.006	56.824
55.000	52.409
56.018	54.665
57.010	55.841
58.005	54.567
58.945	52.442
60.001	54.067
61.004	56.525
62.005	56.738
63.006	54.940
64.005	54.849
65.003	52.299
66.019	55.955
67.006	57.137
68.006	55.394
69.005	54.949
70.004	55.050
71.001	51.951
72.004	57.023
73.005	56.438
74.004	55.050
75.005	54.740
76.009	57.621
77.029	49.799
78.005	59.113
79.007	55.583
80.005	55.005
80.946	53.236
82.010	53.848
83.001	58.420
84.005	55.871
85.005	55.294
86.005	55.050
87.040	54.970
88.004	52.899
89.004	57.894
90.008	55.473
90.946	53.086
92.010	57.325
93.004	52.107
93.999	6.231
