Time [s]	Current [nA]
0.000	39.638
0.995	49.648
1.994	54.855
3.000	53.479
3.999	52.152
5.000	52.348
5.996	49.699
7.016	52.843
7.942	57.235
9.000	50.378
9.997	51.856
10.994	52.558
12.003	54.906
12.995	49.496
14.000	53.134
14.999	51.251
15.989	52.323
17.005	53.543
18.036	52.764
18.998	49.584
19.999	52.547
21.000	51.748
21.999	52.352
22.994	49.246
23.993	53.754
24.995	52.196
25.989	51.811
26.993	51.494
28.035	51.536
28.993	50.418
29.997	53.586
31.006	51.734
32.000	52.616
32.997	51.555
33.992	49.447
34.993	53.546
35.996	52.144
36.996	51.097
37.997	51.543
39.006	51.234
39.996	49.995
40.996	54.295
41.999	52.390
42.999	51.395
43.992	51.757
45.001	54.108
45.996	49.442
47.012	50.684
48.001	52.876
48.997	51.300
50.001	50.692
50.993	48.987
51.995	53.641
53.001	52.082
53.998	51.249
54.998	51.295
55.995	48.842
57.012	52.011
57.994	52.846
58.998	51.588
59.994	51.200
60.995	51.044
62.004	54.062
62.999	48.739
63.998	52.047
65.002	51.290
66.000	51.398
67.002	54.386
68.014	46.438
69.001	53.591
69.997	52.706
70.997	51.095
72.001	51.241
72.996	49.442
73.995	53.348
74.994	51.947
75.995	51.543
76.940	55.021
78.022	49.625
78.994	49.172
79.999	53.527
80.997	52.099
81.996	51.398
83.001	50.841
84.003	53.987
84.996	49.038
86.002	52.579
87.001	51.146
88.005	50.493
89.022	50.929
90.002	55.301
90.940	45.624
92.001	52.919
92.995	50.397
93.996	50.544
95.003	53.222
95.996	47.931
97.002	0.398
