Time [s]	Current [nA]
0.000	48.334
1.000	52.695
2.000	58.594
2.992	51.003
3.996	55.174
4.994	55.105
5.997	57.180
7.001	58.659
8.025	54.096
8.993	51.854
9.995	54.985
10.994	54.949
11.996	57.180
13.001	58.303
13.994	50.549
14.993	54.849
15.996	54.885
16.997	57.137
18.025	55.150
19.010	57.152
19.996	51.009
20.995	54.549
21.994	54.649
22.997	56.624
24.001	57.863
24.993	50.096
25.996	54.386
26.995	54.549
28.000	55.915
29.022	54.006
29.994	53.698
30.996	55.483
31.995	54.149
32.994	54.349
33.997	56.624
35.001	57.464
35.997	50.045
36.996	54.149
38.003	59.080
39.023	48.328
40.000	58.234
41.002	56.881
41.997	50.045
42.996	54.349
43.995	54.349
44.999	56.568
46.002	57.779
47.025	54.638
48.000	51.072
49.001	55.239
49.997	55.015
50.996	52.247
51.999	56.724
53.001	55.384
54.000	55.150
54.997	54.558
56.004	52.579
56.998	56.936
58.026	52.913
58.998	56.682
59.996	54.704
61.000	54.178
62.003	57.522
62.999	51.601
63.940	53.767
64.995	56.108
65.998	54.286
67.003	57.407
68.018	49.552
69.000	56.817
70.000	55.494
70.998	54.504
71.991	55.080
73.003	56.812
73.941	55.112
74.999	52.263
75.998	54.704
76.998	54.595
78.004	56.953
79.023	54.362
79.998	52.508
81.000	54.985
81.997	53.856
83.006	53.810
84.002	57.324
85.000	50.897
86.008	38.229
86.999	18.969
87.998	30.327
89.027	41.201
89.997	47.315
91.001	53.680
92.003	54.585
92.942	16.399
