Time [s]	Current [nA]
0.000	22.495
1.024	48.335
2.006	50.097
3.000	43.658
3.943	50.472
5.006	49.336
5.999	45.615
6.943	47.982
7.999	45.639
8.943	50.419
9.998	45.019
11.013	48.567
12.012	48.243
13.006	50.900
13.997	43.992
14.999	47.500
16.000	47.595
17.000	49.595
18.006	49.995
19.003	43.627
20.002	47.743
20.999	47.738
22.030	46.164
23.003	51.382
24.006	49.746
24.999	43.702
26.002	47.600
26.999	47.538
27.999	49.495
29.006	49.647
30.022	47.535
31.002	43.669
32.002	47.195
33.001	23.121
34.002	18.480
35.006	30.605
36.001	33.564
36.999	42.280
37.999	44.995
39.008	47.567
40.007	50.646
41.026	47.100
42.006	44.689
43.001	47.734
43.995	47.782
45.003	49.201
46.007	50.743
47.002	43.614
48.010	51.979
49.003	43.500
50.004	49.645
51.049	47.459
52.000	46.683
52.997	48.440
54.003	47.709
55.003	48.095
56.004	49.595
57.008	50.593
58.004	44.072
59.003	48.043
60.003	47.895
61.000	49.343
62.039	45.809
62.995	47.694
64.002	47.463
65.003	47.448
66.003	47.743
67.004	49.346
68.008	49.995
69.008	43.896
70.004	46.983
71.001	47.738
72.037	46.424
73.001	50.825
74.007	49.896
75.003	43.470
76.003	47.243
77.004	47.548
78.000	49.493
79.007	49.945
80.003	43.570
81.003	47.495
82.014	51.726
83.018	42.625
84.006	50.197
84.999	45.313
86.003	48.051
87.002	47.243
88.000	47.490
89.007	48.952
90.010	50.244
91.020	47.322
92.005	43.346
93.002	47.237
94.001	47.243
95.004	48.948
95.947	48.191
97.006	45.132
98.004	47.290
99.004	47.395
100.005	49.446
101.024	49.357
102.003	43.816
103.004	47.747
104.005	47.348
105.003	47.590
106.007	48.948
107.047	22.690
