Time [s]	Current [nA]
0.000	1.751
0.997	44.028
2.000	43.066
3.001	43.352
3.994	45.111
5.002	45.278
6.001	39.836
7.002	43.153
8.002	43.196
9.001	45.441
9.996	40.398
11.001	43.080
12.000	43.339
13.000	42.796
14.001	42.753
14.939	43.386
15.995	42.081
17.002	43.888
18.001	43.439
19.001	43.196
20.001	45.096
20.940	42.168
22.001	42.597
23.002	43.652
24.003	43.053
24.999	43.369
26.003	45.559
26.999	40.859
28.000	43.852
29.006	43.037
30.006	42.896
31.011	39.300
32.006	43.915
33.001	45.121
34.005	43.422
35.006	42.696
36.006	43.196
37.002	41.161
38.008	45.125
39.006	44.084
40.007	43.252
41.003	43.972
42.026	43.300
43.000	40.550
44.002	46.003
44.997	40.197
45.998	43.896
46.998	43.696
47.941	43.898
49.003	46.700
50.022	43.372
51.003	40.261
52.002	43.339
53.002	42.896
53.941	43.659
54.998	42.758
56.004	44.175
57.005	43.153
58.001	43.570
59.005	42.924
59.997	16.531
61.026	21.572
62.003	33.466
63.001	37.471
64.007	41.149
64.996	39.632
65.942	47.720
67.008	41.553
68.008	42.796
69.007	43.039
69.999	40.520
71.021	42.951
72.008	46.095
72.997	39.834
73.998	43.652
75.009	47.421
76.003	41.646
77.005	46.003
78.005	39.996
79.000	43.614
80.003	43.665
81.023	44.309
82.015	44.552
83.005	41.713
84.005	43.796
85.001	44.072
86.003	44.451
87.000	41.621
88.002	45.704
89.003	44.251
90.004	42.953
91.005	43.252
92.037	42.728
93.005	42.248
94.008	45.559
95.009	43.996
96.009	43.496
97.009	43.296
98.001	41.125
99.002	45.850
100.030	42.700
101.009	44.633
102.008	43.339
103.008	43.596
104.004	42.365
105.009	46.211
106.006	45.131
107.006	44.496
107.944	43.279
108.999	44.071
110.014	46.104
111.009	40.599
112.006	44.629
113.006	44.796
114.003	45.031
115.005	47.001
116.002	41.964
117.053	28.066
