Time [s]	Current [nA]
0.000	16.665
0.997	51.249
2.032	51.106
3.000	54.953
3.998	48.592
5.001	51.891
6.000	51.446
7.000	51.595
8.004	52.784
8.998	49.794
10.001	51.640
10.999	51.197
12.000	51.244
13.017	50.339
14.002	55.223
15.001	48.192
16.000	52.147
17.000	51.295
18.002	51.192
19.002	53.095
20.006	53.481
21.029	51.315
22.006	47.078
23.000	51.001
23.998	50.696
24.998	53.095
26.006	53.520
27.002	47.084
28.001	50.946
29.002	50.844
30.000	53.001
31.014	53.151
32.002	46.655
33.004	51.192
34.002	50.797
34.943	53.980
36.004	50.372
36.999	48.136
38.007	51.285
39.001	51.001
39.999	50.496
40.998	52.848
42.040	43.086
43.007	14.890
44.006	22.120
45.008	33.963
46.003	41.403
46.945	46.598
47.944	50.045
48.944	45.895
49.944	51.095
50.944	51.295
51.944	51.395
53.001	50.042
53.944	52.487
55.004	53.297
56.006	50.944
56.945	49.409
58.001	50.090
59.004	53.135
59.945	50.473
60.945	51.195
62.006	53.246
63.047	49.275
64.002	50.885
65.005	53.036
66.007	51.743
67.005	51.398
68.004	51.346
68.999	48.337
70.004	53.132
71.016	51.779
72.007	52.472
72.945	49.147
74.004	53.163
75.003	48.248
76.006	54.038
77.007	52.048
78.006	51.151
79.006	51.300
80.002	48.494
81.001	53.453
82.016	51.232
83.010	52.414
84.009	51.251
85.008	50.951
86.002	47.887
87.002	53.100
88.006	52.390
89.004	50.902
90.006	51.098
91.001	47.940
92.033	50.484
93.005	53.086
94.005	50.600
95.005	49.600
96.002	50.251
97.001	47.147
98.003	51.996
99.009	51.690
100.059	30.381
