Time [s]	Current [nA]
0.000	38.857
0.988	39.976
1.989	43.053
3.001	41.893
3.991	42.622
4.991	41.296
5.994	43.808
6.990	39.554
8.001	41.638
8.991	42.824
9.988	40.116
10.988	41.096
11.987	39.936
12.990	42.967
13.988	42.681
14.993	40.394
15.984	39.895
16.993	43.801
18.000	39.321
18.931	44.679
19.990	40.128
20.990	41.396
21.991	41.155
22.993	43.908
23.990	38.813
24.990	42.496
25.992	42.553
26.985	41.788
27.994	43.009
29.006	37.150
29.986	44.995
30.988	40.714
31.988	40.796
32.987	42.438
33.993	40.851
34.990	36.305
35.989	40.978
36.989	42.296
37.988	39.736
39.019	37.824
39.998	43.509
40.991	40.580
41.988	42.624
42.991	41.671
43.991	42.796
44.994	44.861
45.991	40.056
46.996	42.384
47.991	42.810
48.990	42.939
50.017	42.449
50.998	46.377
51.990	41.125
52.992	43.808
53.992	42.696
54.988	43.269
55.995	44.926
56.992	40.618
58.003	43.022
58.994	44.395
59.991	18.754
60.991	18.498
62.000	30.027
62.992	33.263
63.999	40.115
64.992	41.486
65.995	41.912
66.995	45.195
68.002	39.817
68.994	43.645
69.991	44.028
70.992	42.753
71.989	43.025
72.999	44.946
73.992	40.781
74.992	43.596
75.988	43.111
76.993	42.682
77.996	45.559
79.035	43.210
79.988	41.024
80.989	43.552
82.003	42.303
82.991	44.429
83.995	44.717
84.992	40.818
85.992	44.140
86.988	42.867
87.992	42.924
89.005	44.813
90.013	43.845
90.994	41.280
91.995	44.251
92.995	42.896
93.989	43.658
94.995	45.522
95.993	41.320
96.997	44.219
97.991	43.557
98.991	43.596
100.033	42.798
100.934	45.833
101.993	43.055
102.993	44.296
103.996	43.366
104.989	43.802
105.997	45.676
106.993	40.960
108.013	43.329
109.009	44.674
109.999	44.541
110.996	44.830
111.985	42.058
112.996	45.891
113.992	40.357
114.992	44.096
115.992	44.340
116.989	45.933
118.008	45.628
118.993	9.136
