Time [s]	Current [nA]
0.000	47.432
1.039	48.407
2.001	47.708
3.006	48.950
4.005	48.544
5.006	49.195
6.010	43.322
7.007	14.943
8.006	23.021
9.007	33.763
10.007	40.696
11.033	45.415
12.010	48.920
13.006	45.277
13.944	52.767
14.944	44.696
16.010	50.042
17.001	45.606
18.000	50.145
19.009	49.153
20.004	48.136
21.005	48.147
22.041	46.907
23.006	47.456
24.009	50.244
25.011	48.746
26.007	48.891
27.001	43.557
28.002	49.645
29.007	49.945
30.031	47.944
31.007	44.155
32.007	47.795
33.008	47.847
34.006	50.396
35.003	45.231
36.007	48.549
36.945	50.954
38.007	45.193
39.004	50.246
40.001	45.331
41.025	52.534
42.007	43.784
43.006	47.643
44.002	47.485
45.007	49.497
46.003	44.975
47.008	48.552
48.008	47.895
49.008	48.095
50.004	49.694
51.022	49.700
52.007	44.260
53.007	48.095
54.003	47.887
55.003	47.995
55.946	52.436
57.008	47.735
58.008	43.996
59.008	47.895
60.009	47.947
61.027	48.718
62.020	49.945
63.065	48.225
64.007	46.492
65.009	48.047
66.009	48.195
67.013	50.194
68.009	45.277
69.008	47.943
70.008	47.795
71.008	48.195
71.946	51.594
73.008	47.735
74.004	44.975
75.008	49.247
76.012	48.302
77.013	48.247
78.009	45.277
78.947	47.756
80.021	48.692
81.008	49.337
82.008	48.095
83.012	48.003
84.009	45.432
85.002	49.340
86.012	48.261
87.009	47.337
88.009	47.695
88.947	48.076
90.002	47.768
91.018	47.338
92.012	49.995
93.011	48.644
94.008	48.541
95.004	45.779
96.007	49.895
97.010	49.347
98.010	48.595
99.009	48.344
100.005	45.277
101.042	48.308
102.013	51.591
103.014	48.347
104.012	48.192
105.012	44.040
