Time [s]	Current [nA]
0.000	30.022
1.030	44.757
1.996	53.934
3.001	50.050
3.997	50.301
4.999	50.000
5.995	47.892
6.997	51.497
7.998	51.049
8.999	49.550
9.999	50.100
11.009	52.376
12.010	45.255
13.000	53.333
14.000	50.400
14.992	49.294
15.996	49.701
16.995	47.848
17.995	52.400
18.998	51.147
19.995	49.248
20.999	50.199
22.046	48.711
23.000	50.000
23.998	52.104
24.938	49.043
25.998	51.038
26.998	50.100
27.992	47.887
28.998	51.491
30.023	50.244
31.003	51.633
31.998	50.050
32.996	49.399
33.992	47.892
34.993	52.048
35.999	50.497
36.996	50.251
37.998	50.898
38.985	47.619
40.002	51.032
41.002	51.200
41.996	50.905
42.996	49.700
43.989	50.352
44.999	52.178
45.996	47.242
46.998	50.898
47.997	50.050
48.995	50.501
49.992	47.041
51.026	49.130
51.996	53.402
52.997	50.549
53.997	49.200
54.995	49.900
55.999	51.992
56.992	47.533
57.936	48.941
58.997	50.990
59.995	49.699
61.004	51.833
62.009	44.876
62.997	53.239
64.001	50.100
65.002	49.151
65.996	49.497
66.993	46.740
67.990	51.655
68.996	50.497
69.996	48.900
70.995	50.050
72.034	47.738
72.992	49.374
73.996	52.390
75.002	50.099
76.001	49.850
77.001	49.600
77.991	47.172
78.991	51.500
80.014	49.365
80.996	51.426
81.996	49.100
82.995	49.950
83.993	47.395
84.998	51.741
85.993	50.754
86.934	47.821
87.994	51.321
88.997	52.044
89.988	47.427
91.025	48.409
91.993	51.860
92.994	50.050
93.992	50.000
94.992	47.600
95.993	51.748
96.995	51.397
97.994	49.349
98.994	49.900
100.092	25.319
