Time [s]	Current [nA]
0.000	40.460
1.002	43.908
2.001	46.742
3.006	45.667
4.013	50.343
5.003	44.081
6.010	48.257
7.013	41.571
8.007	46.776
9.002	46.026
10.003	45.850
11.003	48.295
12.009	48.206
12.947	44.665
14.003	43.272
15.003	46.041
15.948	50.577
17.034	44.102
18.006	43.617
19.006	46.495
20.006	45.695
21.004	45.887
22.007	47.453
22.948	46.329
24.007	44.188
25.003	45.578
25.949	48.461
26.948	47.543
27.948	41.696
29.010	45.570
30.010	45.795
31.009	45.641
32.004	45.724
33.007	47.453
34.009	48.099
34.948	44.937
36.007	43.001
37.004	39.314
38.056	14.922
39.014	20.562
40.005	28.655
41.007	36.823
42.000	41.587
43.003	42.767
44.007	45.812
45.002	44.418
46.014	45.989
47.007	46.219
48.004	45.833
49.004	45.795
50.005	47.847
51.011	48.007
52.002	42.175
53.000	45.787
54.006	45.125
55.009	47.201
56.017	48.408
57.020	45.559
58.008	41.899
59.006	45.286
60.016	49.302
61.013	42.824
62.011	47.991
63.004	41.788
64.004	45.195
65.006	45.105
66.009	46.602
67.038	44.991
68.007	43.752
69.009	45.704
70.001	45.560
71.000	45.341
72.008	46.226
73.012	47.605
74.008	41.462
75.006	44.585
76.001	45.166
77.023	45.397
78.021	45.987
79.008	43.562
80.007	45.141
81.008	44.951
82.008	44.995
83.007	46.842
84.006	42.939
85.010	45.559
86.007	45.131
87.008	44.651
88.044	49.030
89.012	43.281
90.008	43.068
91.009	45.450
92.007	44.685
93.006	44.840
94.009	46.456
95.013	47.652
96.036	44.961
97.014	41.611
98.013	44.840
99.009	44.473
100.009	46.695
101.012	47.253
102.008	41.763
103.000	45.157
104.008	44.936
105.007	47.343
106.013	47.557
107.032	45.334
108.014	41.951
109.013	44.940
110.010	45.532
111.006	46.782
111.952	5.391
