Time [s]	Current [nA]
0.000	19.134
1.000	53.995
2.020	48.328
2.997	55.880
4.001	56.269
4.995	49.190
6.001	53.229
6.939	57.031
8.004	52.952
8.998	50.699
10.001	54.332
11.005	53.481
12.009	52.883
13.013	53.082
14.001	51.209
14.999	55.806
16.004	53.282
17.004	53.195
18.005	52.942
19.002	50.346
20.000	55.505
21.030	51.257
22.005	55.994
23.004	53.048
24.004	52.995
24.999	50.246
26.005	55.417
26.995	48.985
28.005	57.816
28.994	48.327
29.995	55.139
31.019	53.510
32.001	55.493
33.001	48.895
34.001	53.495
34.939	57.137
36.005	52.295
37.002	49.845
37.995	54.073
38.998	53.036
40.002	52.883
41.002	41.496
42.024	15.752
43.008	23.778
44.006	37.371
45.007	43.696
46.005	48.492
47.004	47.343
48.006	55.084
49.006	54.395
50.002	54.312
51.001	53.448
52.027	47.364
53.005	57.970
53.994	50.652
55.002	53.368
56.002	53.348
56.999	52.954
58.001	54.885
58.998	51.249
60.024	57.694
61.003	49.331
62.003	53.395
63.003	53.395
64.005	55.483
65.003	50.195
66.004	53.795
67.000	53.609
68.004	53.580
68.999	51.151
70.010	54.297
71.009	54.949
72.005	53.408
73.006	52.842
73.941	51.332
75.003	52.066
76.006	55.982
77.003	53.555
77.996	48.031
78.997	52.942
79.999	54.985
81.034	51.589
82.000	52.169
83.003	53.434
84.000	53.154
85.002	53.188
86.004	55.539
87.000	49.593
88.001	53.941
89.003	52.190
90.000	53.054
91.032	52.417
91.999	50.460
93.000	54.140
94.003	53.335
95.001	53.201
96.005	52.138
96.996	6.054
