Time [s]	Current [nA]
0.000	36.955
0.998	44.384
2.003	46.065
3.000	41.119
4.001	44.751
4.997	43.871
5.999	43.852
7.011	45.944
8.007	39.956
9.007	47.195
9.996	40.340
10.998	43.808
11.999	43.952
13.000	45.550
14.006	45.522
14.995	40.340
15.997	43.752
17.003	47.610
18.016	39.285
18.994	46.519
20.004	45.342
20.998	39.734
21.942	46.182
22.999	41.245
24.001	45.105
25.003	46.149
25.942	42.062
27.004	41.710
28.008	43.621
29.001	44.004
30.004	46.157
30.998	41.344
32.003	43.677
33.000	43.526
33.998	43.483
35.004	45.423
36.002	41.019
37.018	43.204
38.009	45.202
39.009	43.596
40.008	43.940
41.004	41.161
42.007	45.359
43.009	44.008
44.003	44.161
44.998	39.494
46.002	44.961
47.023	44.266
48.005	45.413
49.000	40.096
49.999	43.339
50.999	43.496
51.997	45.186
53.013	23.029
54.002	11.526
55.002	21.098
55.994	29.160
57.016	35.222
58.010	39.231
59.004	42.953
60.000	39.855
60.999	43.839
61.998	43.739
62.993	46.327
64.005	45.845
64.943	42.853
65.998	41.457
67.006	47.813
68.028	39.135
69.002	47.634
70.000	41.479
71.001	44.451
72.002	43.952
72.999	44.028
73.999	45.395
75.005	45.920
76.020	43.684
77.007	40.118
78.006	43.940
79.006	43.496
80.010	46.011
81.002	41.629
82.002	43.996
83.002	43.596
84.002	43.496
85.007	45.369
86.004	40.859
87.010	43.435
88.006	44.875
89.006	43.396
90.006	43.496
91.001	40.800
91.945	47.453
93.003	41.867
94.002	42.839
95.000	43.382
96.001	41.196
97.028	42.255
98.002	46.402
99.003	43.053
100.008	42.682
101.002	43.255
102.007	44.971
103.003	40.458
104.003	43.696
105.003	43.096
106.004	42.896
107.040	43.142
107.946	43.263
109.008	41.804
110.003	43.312
111.003	42.596
112.003	42.696
113.007	44.517
114.003	40.157
115.002	43.139
116.008	42.085
117.096	18.564
