Time [s]	Current [nA]
0.000	30.275
1.001	44.451
1.999	44.384
2.997	42.481
4.000	45.459
5.003	45.005
5.941	43.173
7.002	45.424
7.941	44.830
9.028	46.729
10.002	42.398
11.007	46.662
12.003	45.176
13.004	45.250
14.000	42.767
15.003	47.951
15.998	41.646
16.999	45.250
17.997	45.687
19.024	44.397
20.001	47.897
21.004	48.250
21.998	41.545
22.998	45.295
24.005	49.548
25.000	43.011
26.004	47.951
26.998	41.646
27.998	45.195
28.997	45.541
29.942	47.826
31.000	44.703
31.997	43.125
32.999	45.704
33.993	45.368
34.999	44.727
36.002	46.802
37.005	47.553
38.018	45.010
39.004	41.375
40.001	45.031
41.004	45.160
42.007	46.157
42.994	43.765
43.999	45.170
44.994	44.619
45.997	44.606
47.002	46.364
48.021	46.806
49.000	41.467
50.001	45.450
50.998	44.830
51.997	44.840
53.002	46.761
54.005	47.353
55.005	38.096
56.006	13.299
57.002	18.171
58.010	29.362
58.943	34.187
60.002	39.656
61.006	42.127
62.002	43.670
62.943	48.561
64.005	45.476
65.002	43.025
65.944	44.948
67.003	46.832
68.012	45.189
69.031	46.315
70.001	43.088
71.002	47.148
72.006	46.211
73.012	45.224
74.009	45.632
75.006	48.039
76.003	42.867
77.005	46.901
78.008	45.060
79.009	45.750
80.028	44.843
81.001	45.011
82.008	47.165
83.005	46.836
84.004	45.041
85.005	45.750
85.999	43.601
87.008	47.468
88.023	45.414
89.009	47.865
90.006	46.435
91.004	41.579
92.005	47.648
93.006	48.347
94.001	42.106
95.002	45.850
96.002	45.741
97.011	47.270
98.029	46.557
99.003	43.425
100.003	46.395
101.003	45.795
102.003	45.595
103.005	47.301
104.007	47.899
105.001	41.847
106.000	45.687
107.007	49.647
107.946	45.363
109.014	43.348
110.006	48.584
111.004	41.679
112.125	33.627
