Time [s]	Current [nA]
0.000	15.968
1.003	45.459
2.000	45.432
3.006	44.131
3.944	43.173
5.028	45.609
5.945	45.797
6.999	43.544
8.010	44.803
9.011	44.351
10.010	44.740
11.007	41.922
12.006	46.342
13.023	44.538
14.011	44.530
15.016	44.318
16.012	44.574
17.008	42.164
18.012	46.410
19.010	45.186
20.011	44.451
21.006	45.121
22.003	42.022
23.007	47.007
24.026	44.353
25.007	40.200
26.008	42.653
27.005	42.523
28.008	44.562
29.005	39.414
30.007	42.910
31.006	42.839
32.012	42.143
33.003	40.561
34.032	43.630
35.012	44.939
36.009	43.827
37.009	42.696
38.001	39.008
39.005	44.219
40.008	45.858
41.003	39.795
42.004	42.953
43.004	43.396
44.004	45.095
45.032	42.936
46.004	41.868
47.004	43.996
48.004	43.596
49.004	43.596
50.005	44.951
51.002	42.122
52.004	43.908
53.010	44.230
54.008	43.984
55.038	44.116
56.012	47.018
57.009	41.821
58.006	44.930
59.006	44.296
60.003	44.228
61.009	46.119
62.006	41.721
63.012	44.131
64.009	44.830
65.017	44.087
66.031	43.585
67.010	42.897
68.009	46.041
69.017	17.062
70.014	15.244
71.014	24.498
72.006	29.937
73.007	38.458
74.034	39.334
75.013	43.043
76.013	44.296
77.010	45.231
78.007	41.922
78.948	44.948
80.006	42.529
81.006	44.296
82.004	44.485
83.008	45.912
84.034	46.389
85.011	41.082
86.008	45.031
87.009	45.050
88.011	45.005
89.011	42.196
90.009	46.088
91.014	45.269
92.014	44.196
93.014	44.096
94.009	41.604
94.948	47.493
96.011	44.346
97.007	40.558
98.012	44.075
98.949	46.847
100.007	43.096
101.007	42.496
102.011	45.015
102.949	47.543
104.006	41.812
104.949	48.351
106.015	43.282
106.950	45.022
108.012	42.369
109.011	44.640
110.011	44.496
111.014	46.954
112.012	42.080
113.011	45.441
114.008	45.432
115.013	44.617
116.042	24.487
