Time [s]	Current [nA]
0.000	2.259
1.000	24.698
2.060	25.752
3.000	25.104
4.000	26.897
4.999	26.924
6.000	21.998
7.000	18.698
8.000	18.198
9.000	21.598
10.000	25.897
11.000	26.197
12.000	24.098
13.000	21.798
14.061	21.864
15.000	31.733
16.001	27.697
17.001	27.797
18.001	26.797
19.001	27.097
20.001	27.297
21.001	28.397
22.001	26.097
23.000	27.225
24.000	27.097
25.000	27.097
26.001	28.797
27.001	29.297
28.001	25.097
29.001	27.497
30.001	27.497
31.061	17.734
