Time [s]	Current [nA]
0.000	41.089
0.938	50.848
1.996	37.142
2.995	13.112
3.994	21.619
4.997	35.426
6.001	47.206
6.938	46.954
7.999	49.948
8.992	53.066
9.938	55.703
10.992	51.608
12.000	55.451
12.995	47.834
13.995	52.595
14.996	52.542
16.002	53.626
17.032	53.490
17.996	49.684
18.996	53.095
19.994	52.199
20.996	52.091
21.939	56.304
23.001	51.972
24.001	48.695
24.995	51.303
25.996	51.695
26.993	53.555
28.030	51.393
28.994	51.966
29.996	52.789
30.994	52.199
31.994	52.095
32.997	52.736
34.001	51.788
34.996	46.629
35.996	52.247
36.998	51.392
38.028	51.742
38.997	55.103
40.002	53.925
40.997	46.729
41.996	51.246
42.997	51.044
43.996	54.549
45.002	54.522
45.997	47.834
46.994	52.653
47.940	56.020
49.020	48.421
50.001	56.467
50.997	49.995
51.997	53.095
52.997	50.795
53.994	51.850
54.999	53.925
56.003	56.026
57.020	52.895
58.003	49.639
59.002	51.146
60.002	43.796
60.996	42.450
61.994	38.774
62.997	41.571
63.996	41.137
64.996	41.196
65.996	44.040
67.022	43.563
67.998	40.365
69.003	42.881
69.996	43.601
70.994	41.779
71.997	42.867
73.003	43.733
73.998	39.494
74.997	42.138
75.997	41.437
77.005	43.845
78.026	41.524
78.998	41.971
80.004	42.044
80.998	42.953
81.996	41.779
82.997	44.251
84.003	45.423
85.003	40.996
85.998	44.261
86.997	44.240
88.035	44.215
88.942	48.396
89.994	45.243
91.000	46.616
92.000	45.995
92.942	49.146
94.000	43.757
95.003	49.546
96.027	45.645
97.004	43.598
98.004	46.195
99.004	46.095
99.942	48.929
100.998	52.741
101.999	44.451
102.996	48.240
104.000	48.003
104.950	15.156
