Time [s]	Current [nA]
0.000	4.419
1.005	48.652
2.000	50.447
2.999	50.145
3.998	52.647
5.006	52.924
5.999	46.219
7.000	49.945
7.998	50.296
9.029	50.043
10.000	56.225
11.005	53.328
11.998	47.427
12.999	51.943
13.997	50.296
15.003	51.338
16.006	53.534
17.016	50.094
18.001	45.985
19.000	51.246
20.006	56.456
21.004	48.392
22.007	54.232
23.001	46.072
24.000	49.745
25.000	49.695
26.003	50.494
27.006	53.135
28.029	49.457
29.000	46.545
29.999	50.946
31.000	49.845
32.003	51.141
33.006	53.135
33.999	45.715
35.000	49.745
36.001	49.795
37.004	51.441
38.045	49.082
39.007	52.282
40.003	44.373
41.000	49.042
41.999	48.444
42.999	50.895
44.007	52.277
45.000	45.413
45.997	48.991
47.003	49.100
48.004	50.644
49.027	47.796
50.009	51.930
51.003	44.865
52.001	48.592
53.002	49.146
54.004	50.195
55.008	43.964
56.004	11.545
57.004	17.898
58.002	29.556
59.029	37.289
60.001	46.703
61.007	49.100
62.000	43.097
63.000	39.096
64.007	40.214
65.004	33.798
66.008	37.783
67.005	33.597
68.000	36.278
69.007	35.647
70.031	39.742
71.006	34.356
72.000	33.397
73.000	36.596
74.001	36.260
75.009	39.718
75.947	36.670
77.008	37.320
78.017	37.063
79.001	35.057
80.001	38.096
81.003	38.220
82.001	42.180
83.008	42.598
84.002	37.421
84.996	41.545
86.001	41.729
87.005	42.924
88.012	44.385
89.018	41.149
90.005	38.902
91.003	42.381
92.007	42.227
93.008	45.250
94.004	41.863
95.006	45.205
96.009	43.908
97.007	44.184
98.001	43.054
99.035	44.290
100.001	47.200
101.007	45.721
102.004	44.429
102.948	47.665
104.008	43.864
105.001	43.500
106.006	47.206
107.002	45.176
108.010	45.928
109.021	47.077
110.018	46.234
111.001	44.044
111.947	5.602
