Time [s]	Current [nA]
0.000	23.075
1.052	52.846
2.053	57.337
3.060	57.492
4.071	54.792
5.058	50.198
6.057	55.250
7.057	54.795
8.061	56.867
9.054	52.563
10.058	55.373
11.058	54.895
12.000	58.274
13.051	53.943
14.074	56.299
15.063	55.764
16.053	50.500
17.056	54.730
18.066	59.598
19.058	51.809
20.061	58.020
21.055	50.297
22.057	54.785
23.056	55.050
24.056	57.294
25.088	54.311
26.058	53.912
27.059	55.239
28.062	55.029
29.062	55.394
30.058	56.822
31.057	52.647
32.059	55.783
33.058	54.749
34.053	54.869
35.083	54.222
36.055	58.225
37.057	52.091
38.001	59.210
39.063	52.443
40.062	54.849
41.061	57.652
42.055	52.007
43.059	55.373
44.055	55.316
45.060	55.074
46.079	54.263
47.062	58.997
48.058	51.902
49.063	55.616
50.063	55.394
51.064	54.940
52.063	57.051
53.064	57.437
54.079	54.970
55.063	50.554
56.060	54.859
57.060	54.994
58.058	57.008
59.064	57.052
60.059	50.246
61.058	54.749
62.061	54.631
63.056	57.381
64.073	56.533
65.066	55.942
66.061	50.749
67.059	54.704
68.060	54.840
69.059	57.151
70.059	52.495
71.060	55.439
72.002	58.168
73.059	51.934
74.057	56.908
75.087	54.028
76.060	53.540
77.065	55.019
78.064	54.849
79.064	54.695
80.064	56.494
81.060	52.304
82.060	42.496
83.061	16.782
84.060	26.324
85.091	35.919
86.063	46.703
87.069	50.890
88.061	46.366
89.060	53.448
90.060	54.695
91.062	57.180
92.057	52.357
93.227	39.312
