Time [s]	Current [nA]
0.000	32.255
1.000	55.894
1.993	52.764
2.996	57.621
4.022	53.114
4.995	57.445
5.996	55.194
6.991	50.347
7.993	57.479
8.996	58.419
9.990	51.202
10.988	55.005
11.996	59.915
12.993	52.252
14.019	56.232
14.996	58.541
15.993	50.798
16.994	55.339
17.994	56.094
18.992	57.509
19.996	58.659
20.991	50.749
21.991	55.794
22.991	55.794
23.993	57.579
25.012	55.495
25.991	54.949
26.995	56.170
27.991	55.918
28.991	55.494
29.994	55.827
30.999	58.004
31.991	51.205
32.987	55.717
33.998	59.737
35.018	49.161
35.985	60.284
36.996	58.056
37.993	49.243
38.993	52.895
39.994	52.143
40.991	55.461
41.997	55.064
43.020	51.412
43.992	42.177
44.989	14.843
45.994	22.309
46.991	36.406
47.999	45.928
48.995	46.582
49.994	51.246
50.994	52.895
51.997	54.830
52.999	55.783
54.014	53.985
54.998	49.589
55.994	54.467
56.991	54.759
58.000	56.090
58.996	50.196
60.004	54.657
60.997	55.181
61.998	52.742
62.999	55.039
64.016	47.881
64.997	54.123
65.997	54.449
66.996	53.248
67.996	53.495
68.999	55.628
69.998	50.145
70.998	53.795
71.992	52.912
72.996	51.887
74.007	54.297
75.021	51.821
76.001	49.689
76.994	52.261
77.993	51.146
78.994	51.743
79.999	54.422
80.997	49.193
81.996	53.548
82.993	53.355
83.996	52.537
85.032	51.203
85.993	50.151
86.994	54.140
87.999	52.035
88.998	51.046
89.988	52.217
91.000	54.935
91.997	49.744
92.997	51.995
94.001	51.588
94.938	21.876
