Time [s]	Current [nA]
0.000	44.580
0.997	46.353
1.937	48.474
2.995	50.866
3.995	48.415
5.035	47.469
5.992	47.559
6.936	53.088
7.998	46.530
8.995	48.010
9.993	48.612
10.996	51.162
11.993	45.003
12.993	50.215
13.993	48.415
14.995	48.318
16.006	47.939
16.987	46.905
17.987	51.115
18.931	48.374
19.993	50.203
20.989	48.910
21.992	50.314
22.992	45.914
24.002	47.836
24.991	49.358
25.988	47.810
26.983	47.753
27.990	49.071
28.983	43.876
29.986	47.971
30.985	46.761
31.983	47.061
32.988	49.965
34.007	43.389
34.986	48.329
35.988	45.776
36.984	47.002
37.980	47.605
38.985	48.126
39.924	47.085
40.984	44.730
41.983	45.714
42.976	46.439
43.977	44.369
45.004	44.955
45.980	50.425
46.921	45.285
47.983	47.472
48.977	46.245
49.981	48.321
50.974	44.626
51.976	47.472
52.976	46.414
53.976	44.713
55.001	46.213
55.972	43.576
56.976	47.425
57.975	46.560
58.972	45.805
59.970	46.006
60.978	48.427
61.974	44.246
62.976	47.719
63.971	46.547
64.977	45.143
65.993	45.048
66.971	45.515
67.967	48.006
68.975	46.396
69.969	45.688
70.974	45.287
71.973	48.214
72.968	43.330
73.983	45.531
74.972	46.728
75.974	45.677
76.911	45.371
77.967	45.563
78.965	48.763
79.967	46.820
80.966	45.559
81.970	45.884
82.968	50.115
83.971	41.289
84.975	37.026
85.973	34.379
86.973	33.810
87.968	35.086
88.968	37.873
89.964	33.946
90.965	37.474
91.961	35.718
92.961	36.711
93.960	35.546
94.991	35.767
95.961	40.425
96.961	38.111
97.963	36.238
98.959	35.517
99.963	38.458
100.962	36.047
101.960	38.850
102.956	39.269
103.956	39.212
104.983	38.825
105.957	37.177
106.954	40.534
107.958	39.155
108.957	37.811
109.960	38.297
110.955	38.303
111.951	0.301
