Time [s]	Current [nA]
0.000	31.348
0.991	47.624
2.026	54.970
2.993	47.358
3.996	51.141
4.993	52.352
5.990	49.493
6.994	54.676
7.998	52.983
8.999	52.342
9.997	52.299
10.936	51.433
11.936	51.195
13.000	49.713
14.000	52.195
15.000	51.495
16.002	50.944
16.936	51.280
17.938	53.488
18.936	48.392
19.997	52.964
20.996	51.346
22.014	52.254
23.002	46.453
23.998	53.910
24.936	50.208
26.002	53.797
27.003	51.943
27.999	49.895
28.937	52.660
30.002	53.704
30.937	50.155
32.002	54.079
33.015	53.302
33.994	48.616
34.936	53.286
35.937	53.395
36.994	49.191
37.993	50.946
39.002	53.414
39.992	50.702
41.012	52.054
41.999	52.984
42.999	51.695
43.999	51.495
44.937	52.660
45.994	51.699
47.000	52.480
48.000	52.295
49.000	51.595
49.997	54.257
50.990	49.340
52.015	56.092
52.999	48.369
53.994	51.653
54.994	51.795
55.996	54.940
56.995	49.545
58.018	24.338
