Time [s]	Current [nA]
0.000	51.748
0.945	86.658
1.945	71.793
2.945	78.592
3.945	77.892
4.945	78.192
5.946	82.492
6.946	73.993
8.009	80.142
8.945	74.993
10.006	80.294
10.945	77.628
12.008	76.286
12.945	76.513
13.945	78.892
14.945	77.292
15.946	77.892
17.003	75.678
18.004	80.811
18.946	77.062
19.946	77.492
20.946	77.792
21.946	80.592
22.948	80.032
23.946	72.939
25.011	79.973
25.946	74.859
26.946	77.492
28.001	76.106
28.946	85.282
29.946	72.293
30.946	77.492
31.946	77.292
32.946	80.492
33.946	78.392
34.946	73.593
35.947	78.092
36.947	77.292
37.947	77.092
38.947	80.592
40.005	75.796
40.947	76.425
41.947	76.992
42.946	77.270
43.946	77.492
44.946	80.692
45.950	78.955
46.947	72.009
47.947	76.992
48.947	75.892
49.947	76.392
50.947	69.693
51.947	73.093
52.947	73.593
53.947	73.993
54.947	73.393
55.948	76.792
56.948	68.593
57.948	74.992
58.948	73.693
59.947	74.367
60.947	77.592
61.947	70.793
62.947	74.693
63.947	75.092
64.947	40.596
