Time [s]	Current [nA]
0.000	50.887
0.935	70.474
1.935	80.792
2.935	75.492
3.935	80.292
4.935	79.892
5.936	80.292
6.936	80.092
7.995	78.085
8.936	80.651
9.936	81.292
10.936	80.192
11.936	79.992
12.998	78.523
13.993	75.168
14.936	85.781
15.937	80.392
16.936	79.572
17.936	79.492
18.936	75.692
19.936	82.792
20.995	75.819
21.936	85.326
22.936	79.292
23.936	75.692
24.936	80.492
25.937	82.192
26.999	76.734
27.937	76.751
28.937	79.592
29.937	82.692
30.996	77.046
31.999	80.351
33.001	79.333
33.936	76.784
34.936	80.892
35.937	81.692
36.937	74.893
37.937	79.692
38.937	79.392
39.992	76.201
40.993	82.210
41.937	79.759
42.999	75.699
44.000	79.213
44.999	79.171
46.011	78.825
47.000	85.431
47.996	74.390
48.998	79.832
49.938	77.545
51.004	81.699
51.995	75.169
52.993	82.156
53.937	76.687
55.002	82.151
56.004	79.013
57.004	79.092
58.000	74.993
58.999	82.875
59.938	77.628
60.938	79.392
61.938	80.392
63.161	36.055
