Time [s]	Current [nA]
0.000	32.117
0.936	77.877
1.936	81.292
2.936	83.392
3.936	76.292
4.936	80.392
5.937	80.292
6.937	80.192
7.937	82.392
8.937	83.492
9.937	73.993
10.936	80.172
11.936	79.392
12.936	80.092
13.936	83.692
14.936	76.092
15.937	80.292
16.937	79.092
17.937	79.892
18.937	81.792
19.937	82.892
20.937	72.993
21.937	80.292
22.937	79.192
23.937	78.892
24.937	82.592
25.994	77.738
26.938	78.488
27.937	79.472
28.937	79.392
29.937	81.392
31.008	77.023
31.937	79.325
32.937	79.592
33.998	81.519
34.937	76.031
35.938	81.892
36.938	82.392
37.938	73.993
38.999	81.613
39.998	79.371
41.003	81.683
41.938	77.746
42.998	78.200
43.938	63.079
44.938	36.796
45.938	43.239
46.938	52.995
47.938	62.594
48.938	59.994
49.938	70.793
50.938	74.293
51.938	74.893
52.999	72.472
53.938	75.179
54.938	74.493
55.939	73.793
56.939	74.193
57.939	77.092
58.939	71.593
59.939	75.592
60.998	77.707
61.939	72.788
62.938	75.768
63.938	78.592
64.938	70.993
65.939	42.996
