Time [s]	Current [nA]
0.000	28.999
1.000	66.093
2.058	61.052
3.055	64.186
4.057	63.367
5.001	69.346
6.055	62.043
7.001	64.581
8.001	64.894
9.001	63.994
10.001	63.994
11.001	66.193
12.001	60.794
13.056	61.416
14.000	67.366
15.000	63.694
16.001	63.894
17.001	61.394
18.001	66.593
19.001	64.594
20.001	63.894
21.001	64.194
22.063	62.423
23.001	65.132
24.001	64.394
25.002	65.593
26.002	64.794
27.002	64.294
28.002	60.794
29.002	66.893
30.064	61.293
31.061	64.387
32.060	62.857
33.001	64.074
34.001	65.893
35.001	59.094
36.002	64.394
37.002	63.394
38.002	69.093
39.002	60.694
40.002	66.793
41.002	58.994
42.002	63.594
43.002	69.493
44.002	60.994
45.003	64.694
46.003	60.394
47.003	63.994
48.002	63.157
49.061	65.716
50.002	63.437
51.002	65.893
52.056	60.905
53.002	66.695
54.057	60.468
55.002	62.110
56.003	65.793
57.003	65.693
58.003	58.694
59.003	63.294
60.003	69.193
61.003	60.694
62.003	66.593
63.003	58.694
64.003	63.294
65.003	63.394
66.003	63.757
67.003	66.093
68.003	65.593
69.003	58.594
70.003	63.194
71.003	68.693
72.003	60.494
73.003	66.293
74.003	58.194
75.003	64.494
76.004	63.194
77.004	63.094
78.004	65.693
79.004	0.500
