Time [s]	Current [nA]
0.000	33.513
1.000	67.093
2.058	65.211
3.000	68.040
4.000	67.593
5.001	66.393
6.001	66.293
7.060	64.677
8.001	65.775
9.000	68.362
10.000	66.993
11.000	66.093
12.000	66.393
13.000	69.293
14.000	62.694
15.059	64.077
16.057	66.126
17.001	69.908
18.063	64.871
19.082	66.529
20.057	63.583
21.001	70.438
22.056	62.363
23.001	70.046
24.056	65.207
25.057	63.394
26.002	70.469
27.001	66.360
28.001	66.093
29.001	67.093
30.001	67.793
31.001	62.694
32.001	67.393
33.001	65.893
34.057	63.251
35.057	68.562
36.002	66.448
37.002	67.093
38.058	62.494
39.002	70.332
40.002	66.293
41.002	63.594
42.057	64.922
43.002	70.681
44.053	62.220
45.001	69.402
46.062	64.805
47.002	67.334
48.002	66.293
49.060	62.848
50.002	69.208
51.002	65.593
52.002	68.093
53.065	65.469
54.060	60.295
55.057	65.756
56.003	69.232
57.062	64.583
58.003	65.031
59.003	67.793
60.003	66.093
61.003	65.893
62.060	62.245
63.002	66.235
64.002	68.093
65.002	66.793
66.003	65.793
67.003	65.993
68.058	65.112
69.003	63.062
70.003	69.493
71.061	62.754
72.003	69.632
73.003	65.693
74.003	68.693
75.003	62.794
76.057	12.819
