Time [s]	Current [nA]
0.000	15.877
1.000	68.693
2.000	67.993
3.000	67.393
4.059	66.377
5.000	68.856
6.001	68.693
7.057	63.914
8.001	71.285
9.056	66.060
10.001	65.919
11.001	68.793
12.001	67.493
13.001	66.793
14.001	66.693
15.060	65.872
16.001	67.900
17.001	67.293
18.056	63.216
19.001	70.575
20.001	62.894
21.001	66.693
22.059	65.683
23.001	71.012
24.058	62.151
25.001	70.513
26.002	68.493
27.002	63.094
28.002	68.393
29.002	66.093
30.002	66.393
31.002	68.093
32.002	61.394
33.001	69.162
34.001	65.893
35.001	65.093
36.002	65.693
37.002	68.793
38.002	63.594
39.002	68.093
40.002	66.293
41.058	63.157
42.002	71.285
43.002	63.194
44.002	69.193
45.002	66.893
46.057	63.087
47.003	70.078
48.003	68.793
49.003	63.394
50.002	67.961
51.064	63.930
52.002	71.315
53.002	66.393
54.009	69.109
55.002	64.143
56.003	68.093
57.003	66.493
58.003	66.293
59.062	64.677
60.003	66.837
61.003	66.993
62.061	63.510
63.003	70.163
64.003	66.593
65.003	69.193
66.004	62.994
67.004	68.093
68.003	66.360
69.003	66.693
70.003	69.093
71.003	61.894
72.003	68.893
73.003	66.893
74.003	65.893
75.077	46.687
