Time [s]	Current [nA]
0.000	19.328
1.000	59.394
2.000	61.794
3.067	59.882
4.000	58.301
4.999	61.055
6.000	60.294
7.000	60.394
8.000	62.394
9.000	57.594
10.000	61.494
11.058	58.028
12.000	64.856
13.000	62.994
14.084	57.190
15.062	64.170
16.001	58.887
17.001	60.594
18.001	60.494
19.001	63.194
20.001	58.094
21.059	59.918
22.001	64.962
23.000	60.855
24.000	63.794
25.000	62.794
26.001	58.594
27.001	62.194
28.001	60.694
29.001	60.694
30.001	64.294
31.001	58.394
32.001	62.094
33.001	60.794
34.001	60.994
35.001	61.894
36.002	58.394
37.002	62.994
38.002	61.194
39.002	61.694
40.001	60.655
41.051	60.661
42.001	61.257
43.001	61.494
44.001	60.994
45.001	60.594
46.002	61.494
47.054	60.450
48.002	61.070
49.002	61.894
50.002	61.094
51.002	61.294
52.002	64.094
53.002	58.994
54.002	61.794
55.002	62.094
56.003	61.394
57.003	60.994
58.002	63.557
59.002	58.294
60.002	61.994
61.002	60.694
62.002	60.794
63.002	62.994
64.002	56.294
65.058	60.278
66.003	64.755
67.003	60.194
68.003	60.394
69.057	59.861
70.003	60.988
71.060	57.232
72.003	63.302
73.003	60.094
74.003	61.894
75.003	61.294
76.003	57.952
77.003	60.894
78.003	60.394
79.003	60.594
80.003	63.294
81.003	57.994
83.070	25.010
