Time [s]	Current [nA]
0.000	29.054
1.000	64.194
2.000	62.894
3.000	63.294
4.057	59.408
5.001	66.589
6.001	60.794
7.001	66.393
8.001	63.694
9.001	63.194
10.059	59.540
11.001	63.369
12.001	64.494
13.056	62.553
14.058	63.467
15.002	66.483
16.001	63.257
17.001	64.394
18.001	60.394
19.001	64.094
20.001	62.594
21.001	63.094
22.001	64.993
23.001	58.494
24.001	65.893
25.002	63.294
26.002	62.394
27.002	62.294
28.002	64.794
29.002	59.794
30.002	64.494
31.002	62.894
32.002	62.394
33.078	58.637
34.001	64.891
35.002	65.993
36.002	64.094
37.002	63.294
38.002	62.594
39.002	65.193
40.002	59.994
41.002	63.994
42.002	63.394
43.002	58.994
44.002	54.795
45.003	52.195
46.058	54.307
47.003	59.888
48.003	31.697
49.003	18.898
50.003	26.697
51.010	37.931
52.002	40.218
53.002	46.995
54.002	54.595
55.003	58.194
56.003	60.994
57.003	53.995
58.003	58.294
59.003	57.794
60.003	58.094
61.055	57.409
62.003	61.808
63.003	53.295
64.003	58.094
65.003	57.994
66.004	58.894
67.004	61.294
68.003	61.756
69.003	56.094
70.003	61.194
71.003	60.694
72.003	60.694
73.003	61.194
74.003	56.394
75.003	59.694
76.004	58.694
77.004	60.094
78.004	62.694
79.004	62.194
80.004	56.994
81.004	59.694
82.004	59.794
83.004	60.194
84.004	62.294
85.059	11.194
