Time [s]	Current [nA]
0.000	1.631
0.937	66.055
2.004	60.725
2.937	62.159
4.013	57.522
5.000	61.595
5.997	62.042
6.938	65.774
8.001	61.424
8.938	56.771
9.998	63.579
10.938	59.249
11.938	61.694
12.938	63.694
13.938	58.794
14.938	61.594
15.939	61.794
16.938	61.255
17.938	61.094
18.938	63.394
19.952	62.420
20.938	57.398
21.938	61.594
22.938	62.694
23.938	59.694
24.938	63.094
25.939	64.993
26.939	62.894
27.939	62.994
29.001	59.599
29.997	59.030
30.939	62.839
31.939	62.394
32.939	62.594
33.939	62.894
34.938	57.552
36.023	64.016
36.939	65.168
37.939	62.394
39.003	57.889
39.939	65.912
40.939	59.594
41.939	64.394
42.939	56.994
44.005	63.877
44.939	59.737
45.940	61.794
46.940	64.094
48.005	59.994
48.940	59.566
49.995	58.762
50.940	65.179
51.939	64.458
52.939	59.094
54.019	63.142
54.939	60.537
55.940	61.294
57.002	58.280
57.940	62.680
58.940	63.894
59.940	62.194
60.940	62.194
61.996	58.990
62.940	61.223
63.940	58.794
64.940	63.094
65.941	63.194
66.941	61.994
67.941	62.594
68.941	64.993
69.940	59.253
70.940	64.194
71.940	62.794
72.940	62.694
74.001	61.068
75.039	61.421
75.941	64.295
77.000	59.767
78.000	62.194
78.941	61.099
79.941	64.794
81.000	60.900
81.994	0.503
