Time [s]	Current [nA]
0.000	43.096
1.000	65.493
2.000	67.393
3.000	68.093
4.000	60.494
5.000	64.894
6.001	64.094
7.001	67.393
8.001	65.793
9.001	62.694
10.063	69.014
11.001	62.787
12.055	61.569
13.000	70.681
14.000	61.894
15.000	66.293
16.001	64.194
17.001	64.294
18.001	65.693
19.001	60.394
20.001	66.593
21.001	64.994
22.060	59.956
23.001	67.793
24.001	65.793
25.001	61.194
26.002	64.494
27.002	64.194
28.002	64.194
29.068	60.594
30.060	67.231
31.001	64.818
32.001	65.093
33.001	63.994
34.063	59.787
35.062	66.426
36.002	64.143
37.002	63.594
38.064	61.199
39.002	68.650
40.002	58.694
41.064	68.072
42.002	63.959
43.002	59.194
44.060	65.778
45.002	61.565
46.061	62.943
47.003	68.464
48.061	61.903
49.067	65.401
50.002	61.812
51.002	64.094
52.058	63.157
53.064	66.594
54.060	58.629
55.061	64.094
56.066	63.974
57.023	70.421
58.003	60.402
59.062	63.733
60.061	65.559
61.003	62.096
62.003	70.293
63.003	61.194
64.062	62.317
65.003	63.331
66.003	64.058
67.003	63.894
68.003	63.894
69.061	63.415
70.003	70.375
71.003	59.294
72.003	64.194
73.003	64.294
74.003	66.493
75.003	61.194
76.004	64.194
77.004	65.393
78.004	12.999
