Time [s]	Current [nA]
0.000	49.095
1.000	64.494
2.062	63.741
3.000	65.025
4.066	61.251
5.001	62.628
6.061	66.408
7.001	63.611
8.001	64.194
9.001	61.194
10.001	63.994
11.001	62.994
12.001	63.394
13.000	65.859
14.000	60.794
15.061	66.503
16.001	60.845
17.001	63.494
18.001	63.894
19.058	62.245
20.001	64.575
21.001	63.794
22.001	62.894
23.001	63.294
24.001	65.194
25.002	66.793
26.002	58.494
27.002	63.194
28.068	64.346
29.002	62.092
30.001	67.060
31.058	62.529
32.001	62.348
33.001	63.694
34.001	63.494
35.002	65.993
36.002	65.993
37.002	57.694
38.002	64.294
39.060	65.211
40.002	60.504
41.002	66.593
42.002	60.594
43.002	64.694
44.002	63.394
45.003	63.294
46.003	66.493
47.075	61.748
48.002	64.287
49.002	64.194
50.002	63.694
51.002	63.394
52.002	60.594
53.002	66.293
54.002	64.694
55.003	64.294
56.003	64.094
57.003	65.893
58.003	58.394
59.003	67.493
60.003	64.094
61.003	63.094
62.003	63.294
63.003	60.894
64.003	66.693
65.060	60.979
66.059	63.457
67.003	67.260
68.003	65.093
69.003	59.594
70.061	62.565
71.003	68.358
72.061	60.107
73.059	63.721
74.003	63.341
75.003	65.893
76.066	61.199
77.004	67.797
78.049	50.139
