Time [s]	Current [nA]
0.000	11.741
0.937	37.350
2.039	40.196
2.936	40.910
3.936	39.796
4.994	37.331
5.989	39.634
6.937	31.748
7.996	26.249
8.998	26.644
9.998	24.298
11.002	24.400
12.022	23.429
12.994	25.820
14.004	25.542
14.999	23.415
16.000	25.397
16.997	25.775
18.008	27.000
19.005	12.938
19.937	8.476
20.937	6.099
23.024	3.863
23.999	15.178
25.003	24.923
25.938	41.600
26.938	34.297
27.992	18.309
28.997	31.141
29.938	10.626
31.001	16.743
32.000	48.644
32.997	43.727
33.996	40.737
34.992	42.867
35.939	39.108
36.950	39.858
37.938	37.142
39.003	32.861
39.938	29.195
40.938	39.396
42.000	39.921
42.938	42.959
44.000	53.479
45.000	57.494
46.004	60.911
47.001	53.054
47.997	59.030
48.996	54.349
49.996	57.894
51.030	58.311
52.000	60.406
52.997	55.661
54.004	60.868
54.938	55.562
55.989	62.565
56.997	58.427
57.939	62.839
58.994	59.331
59.993	61.155
60.995	68.257
62.032	61.421
62.993	60.452
64.000	65.634
64.998	64.322
65.998	56.451
66.999	62.631
67.999	65.293
68.940	63.437
70.019	64.776
70.940	61.883
72.002	59.410
72.939	67.016
74.004	62.247
75.001	59.172
76.002	63.894
76.997	63.411
78.002	63.078
78.995	60.115
80.007	64.420
81.007	65.094
82.005	64.122
83.005	62.994
83.996	58.117
84.999	65.198
86.003	66.893
86.997	57.942
87.999	62.768
88.999	63.194
90.000	65.927
91.031	61.778
92.001	60.819
92.996	64.215
94.002	62.519
94.994	63.502
96.004	65.603
96.941	62.854
97.941	58.894
99.006	65.533
100.006	62.494
101.031	56.092
101.999	66.212
103.007	64.974
104.141	45.410
