Time [s]	Current [nA]
0.000	42.996
0.938	68.437
2.003	63.937
2.938	64.165
4.018	59.253
4.997	66.592
5.939	68.431
6.938	58.353
7.938	65.993
8.938	67.193
9.938	61.094
10.999	68.231
12.000	65.428
12.938	66.091
13.938	65.893
14.997	65.621
16.005	66.528
17.005	65.793
17.939	64.555
18.939	68.793
19.939	62.994
20.995	63.251
21.996	65.628
22.994	65.725
23.939	70.892
24.938	67.261
25.939	62.594
26.939	66.893
27.939	65.893
28.939	65.793
30.004	65.346
31.001	62.080
31.939	70.995
32.995	62.967
33.995	65.893
35.028	63.753
35.940	68.414
36.999	63.639
37.940	65.031
38.940	66.093
40.002	69.296
40.940	65.558
42.001	65.498
43.022	65.224
43.939	64.770
44.939	65.793
45.942	66.061
46.940	63.120
47.940	67.593
48.940	60.594
49.940	65.693
50.940	65.193
51.940	67.793
52.940	67.793
53.940	65.993
54.940	60.794
55.941	65.793
57.005	67.850
58.003	61.717
58.941	66.624
59.940	66.460
60.940	65.493
61.940	65.393
62.995	63.880
63.940	63.380
64.940	67.593
66.003	62.329
66.941	69.716
68.004	61.424
68.941	66.589
69.941	67.593
70.941	66.393
72.000	62.128
72.994	65.386
73.941	64.724
74.941	65.193
76.000	59.635
