Time [s]	Current [nA]
0.000	49.295
0.999	66.160
1.999	67.093
2.999	61.194
3.999	65.993
4.999	64.494
6.000	64.594
7.062	60.917
8.006	70.967
9.000	61.966
10.000	65.393
11.000	64.194
12.000	64.494
13.000	66.493
14.000	61.394
15.000	65.393
16.001	64.993
17.057	60.695
18.000	68.074
19.000	60.494
20.000	66.493
21.000	65.593
22.000	63.594
23.000	64.294
24.000	60.394
25.000	64.994
26.001	65.993
27.001	64.094
28.001	63.794
29.001	63.594
30.062	62.765
31.001	63.572
32.001	64.594
33.001	63.494
34.001	40.096
35.001	37.996
36.001	51.847
37.059	58.312
38.001	66.448
39.001	63.494
40.001	63.994
41.001	60.294
42.001	65.493
43.001	63.894
44.001	63.294
45.001	63.194
46.002	64.794
47.007	64.471
48.056	57.573
49.002	67.541
50.002	63.094
51.002	63.394
52.002	59.894
53.001	65.059
54.001	63.494
55.059	58.651
56.002	65.847
57.002	62.394
58.002	59.894
59.002	64.993
60.002	62.894
61.002	61.694
62.002	61.994
63.002	65.193
64.002	59.394
65.002	63.894
66.003	63.294
67.003	62.294
68.003	62.494
69.005	64.564
70.059	56.731
71.002	66.377
72.002	62.194
73.002	62.794
74.002	58.994
75.002	64.094
76.003	62.394
77.066	59.354
78.003	66.269
79.009	62.121
80.056	7.449
