Time [s]	Current [nA]
0.000	1.529
0.941	61.524
1.941	62.794
3.035	63.156
3.941	66.770
4.940	59.654
5.941	63.094
7.002	64.084
7.997	62.908
8.941	62.600
9.941	64.993
10.941	56.894
12.002	58.712
13.003	36.560
14.003	46.795
15.003	58.794
15.998	57.942
17.003	63.377
17.942	60.484
18.942	61.994
19.997	59.899
20.942	67.401
21.942	57.094
22.941	62.456
23.941	60.994
24.941	60.994
25.942	64.194
26.942	63.294
28.003	58.807
28.942	59.100
29.942	61.594
30.942	64.094
31.942	62.394
32.942	58.494
34.001	63.261
35.001	61.494
36.002	61.394
36.943	61.205
37.997	60.905
38.943	59.719
39.942	61.255
40.942	61.294
41.942	61.494
42.997	66.628
43.997	56.894
45.002	61.387
46.003	60.794
47.005	62.070
47.998	64.344
49.004	57.151
50.005	62.032
50.943	58.843
51.943	61.794
53.043	61.539
53.943	65.105
55.001	60.674
55.944	60.291
57.006	62.706
57.943	59.226
58.996	60.773
59.943	61.768
61.026	62.321
62.009	63.575
62.943	59.309
63.943	61.394
64.943	63.194
66.000	60.316
66.944	59.528
67.944	61.594
68.944	61.594
69.944	64.194
70.944	63.994
71.944	57.594
72.944	62.294
74.005	63.330
74.943	59.696
75.944	64.394
77.000	60.979
77.944	60.163
78.944	61.694
79.944	61.394
81.000	60.505
82.263	44.809
