Time [s]	Current [nA]
0.000	9.662
1.059	39.656
1.999	41.804
3.077	43.502
4.060	40.586
4.999	42.914
6.066	43.992
7.000	41.752
8.064	44.920
9.000	41.662
10.000	39.496
11.000	43.096
12.000	41.696
13.063	39.037
14.062	40.637
15.061	41.980
16.059	37.972
17.064	39.996
18.063	41.237
19.060	42.222
20.000	41.485
21.000	41.996
22.065	39.808
23.000	40.103
24.066	42.210
25.063	41.261
26.060	39.314
27.001	43.141
28.001	42.496
29.001	42.196
30.001	40.996
31.001	38.796
32.001	43.896
33.001	45.195
34.001	42.896
35.001	38.496
36.002	42.796
37.001	44.740
38.001	39.196
39.063	42.463
40.001	39.868
41.001	41.496
42.001	41.496
43.063	40.674
44.001	42.533
45.001	42.196
46.066	42.101
47.002	40.381
48.058	41.662
49.002	43.004
50.068	38.083
51.064	41.161
52.002	44.878
53.062	39.336
54.002	42.443
55.062	39.751
56.002	38.081
57.063	41.372
58.002	38.761
59.060	39.977
60.076	40.941
61.002	38.873
62.002	40.196
63.002	39.996
64.059	38.596
65.002	41.565
66.061	40.166
67.066	41.090
68.003	43.539
69.062	38.712
70.003	40.697
71.101	41.617
72.002	36.955
73.002	40.996
74.002	39.896
75.002	40.896
76.003	38.096
77.060	38.501
78.065	40.792
79.003	43.812
80.003	41.596
81.003	38.296
82.003	42.796
83.003	42.496
84.003	38.296
85.003	40.496
86.004	40.596
87.066	39.167
88.004	40.934
89.004	40.296
90.060	38.727
91.065	45.170
92.003	38.162
93.064	40.712
94.067	43.366
95.062	37.622
96.062	40.896
97.060	39.475
98.061	41.155
99.066	42.483
100.076	40.491
101.004	39.759
102.004	40.496
103.004	40.196
104.004	38.696
105.004	43.496
106.005	40.696
107.004	40.536
108.004	39.996
109.004	38.796
110.004	42.296
111.004	41.896
112.066	38.508
113.004	43.279
114.008	40.335
115.004	38.651
116.005	42.396
117.071	39.302
118.005	38.540
119.005	39.296
120.005	40.996
121.005	40.396
122.066	39.393
123.005	4.792
