Time [s]	Current [nA]
0.000	50.161
1.000	60.094
2.000	63.794
3.000	62.094
4.000	45.195
5.000	40.196
6.001	48.295
7.001	58.494
8.001	61.694
9.056	58.383
10.001	65.919
11.001	59.294
12.001	64.094
13.000	61.856
14.058	58.123
15.000	65.068
16.001	63.894
17.001	56.994
18.001	63.794
19.001	61.694
20.001	61.394
21.057	58.422
22.051	64.581
23.001	61.257
24.059	58.879
25.054	61.764
26.002	64.972
27.064	60.540
28.082	62.273
29.060	59.197
30.001	65.774
31.056	58.193
32.001	65.284
33.001	58.294
34.062	66.346
35.001	60.058
36.002	61.794
37.002	62.094
38.083	58.551
39.058	65.122
40.063	64.869
41.002	59.845
42.002	61.794
43.002	61.794
44.002	63.894
45.065	60.728
46.003	59.269
47.003	61.694
48.002	61.656
49.002	61.594
50.063	60.597
51.002	61.762
52.002	62.194
53.002	60.794
54.053	58.415
55.002	67.222
56.003	59.294
57.003	61.594
58.003	62.094
59.003	60.294
60.003	60.894
61.003	57.894
62.003	64.094
63.060	57.989
64.059	60.254
65.002	64.787
66.003	62.694
67.003	56.694
68.003	62.394
69.003	61.294
70.003	60.994
71.003	61.294
72.059	60.032
73.003	61.646
74.061	59.635
75.003	64.749
76.004	60.994
77.004	63.794
78.004	55.694
79.004	64.594
80.004	60.794
81.062	57.461
82.064	28.839
