Time [s]	Current [nA]
0.000	46.275
1.000	61.594
2.003	66.195
3.060	61.299
3.998	60.548
4.998	62.794
6.057	62.092
6.999	69.526
8.002	57.920
9.065	66.503
10.065	63.694
11.001	61.639
12.005	66.129
12.999	60.457
13.999	63.394
14.999	62.594
16.002	61.870
17.001	65.359
18.080	61.903
19.001	61.883
20.000	63.657
21.056	59.180
21.999	66.271
23.006	64.343
24.000	60.457
24.999	64.258
26.000	61.994
27.000	62.294
28.008	64.577
29.000	57.958
30.000	65.493
31.005	62.780
32.000	63.109
33.000	62.494
34.000	59.394
35.000	64.494
36.001	63.894
37.001	62.494
38.000	62.656
39.001	63.230
40.000	57.852
41.000	64.594
42.000	62.594
43.000	61.294
44.000	61.494
45.000	58.594
46.001	63.594
47.001	62.594
48.001	61.194
49.001	61.994
50.001	61.694
51.001	59.694
52.001	64.294
53.001	61.894
54.001	60.994
55.001	61.494
56.001	58.453
57.001	64.294
58.001	62.194
59.001	62.294
60.001	61.094
61.001	60.794
62.016	63.245
63.001	60.197
64.001	62.894
65.001	61.294
66.010	60.510
67.067	60.448
68.002	61.384
69.002	62.794
70.002	62.594
71.002	61.194
72.007	61.486
73.010	63.403
74.001	59.429
75.001	62.294
76.002	61.194
77.002	61.694
78.002	58.094
79.002	62.494
80.153	41.177
