Time [s]	Current [nA]
0.000	18.361
1.000	54.195
2.000	60.094
3.000	53.195
4.000	56.794
5.067	58.625
6.001	57.168
7.001	58.494
8.001	53.795
9.000	57.252
10.000	56.994
11.000	57.094
12.000	59.194
13.000	53.895
14.000	57.794
15.000	56.894
16.001	56.994
17.001	58.194
18.001	58.894
19.065	56.573
20.001	55.443
21.001	57.194
22.001	57.294
23.001	58.694
24.062	56.545
25.001	55.160
26.001	57.151
27.001	56.994
28.001	57.294
29.001	54.295
30.001	58.894
31.001	57.594
32.001	57.094
33.001	56.694
34.001	54.295
35.001	59.294
36.002	57.194
37.002	52.495
38.002	56.694
39.002	56.594
40.002	58.494
41.002	54.095
42.002	56.694
43.002	56.894
44.001	56.851
45.001	58.294
46.002	52.195
47.002	62.894
48.002	52.495
49.002	56.394
50.002	56.394
51.002	58.194
52.002	52.995
53.002	57.194
54.002	56.294
55.002	56.894
56.003	53.495
57.003	56.194
58.003	58.594
59.003	57.794
60.065	53.008
61.060	57.080
62.002	57.425
63.002	58.594
64.002	52.195
65.002	56.094
66.003	60.994
67.003	52.395
68.003	58.094
69.006	58.020
70.003	52.552
71.003	56.494
72.003	55.894
73.003	58.794
74.003	53.295
75.003	57.094
76.004	56.594
77.004	56.194
78.004	56.194
79.061	54.867
80.003	55.939
81.003	57.594
82.003	38.596
83.003	30.297
84.068	40.184
85.003	48.230
86.004	52.595
87.004	54.395
88.004	55.394
89.004	56.694
90.110	30.377
