Time [s]	Current [nA]
0.000	31.422
0.999	61.656
1.942	61.712
2.941	63.057
3.941	61.194
5.003	58.563
5.942	64.706
6.942	60.794
8.007	60.370
8.942	61.063
9.942	62.494
10.942	61.294
11.942	60.794
12.942	57.494
13.942	63.294
14.942	62.094
16.008	59.055
17.007	61.856
17.943	59.182
18.943	63.394
19.942	58.353
20.942	61.794
22.000	57.650
22.942	64.856
23.942	57.994
24.942	61.594
25.943	63.594
26.943	57.694
28.000	27.150
28.943	37.430
29.943	43.496
30.943	54.195
31.943	58.494
32.943	58.194
33.943	60.594
34.943	63.494
35.944	57.294
36.944	64.194
37.943	62.256
38.943	61.894
40.001	57.934
41.005	64.635
42.002	57.768
43.007	61.984
43.943	59.823
44.943	61.294
45.944	61.194
46.944	64.794
48.010	60.219
48.944	59.737
50.005	64.273
51.001	55.617
51.944	62.136
52.944	63.094
54.025	63.731
54.943	60.343
55.944	61.194
56.944	61.194
57.944	58.494
58.944	62.794
59.944	61.694
61.002	58.312
61.944	64.749
62.944	57.894
63.944	62.894
64.944	56.694
65.945	61.894
66.945	61.094
67.945	60.794
68.945	63.294
69.945	58.294
71.007	63.176
71.945	57.777
72.944	60.154
74.001	59.313
74.944	58.213
75.945	63.394
76.945	60.294
77.945	60.194
78.945	60.994
79.945	57.094
80.994	59.575
81.945	63.401
82.945	59.894
83.945	6.699
