Time [s]	Current [nA]
0.000	50.695
1.000	62.794
2.000	57.394
3.000	60.394
4.057	56.191
5.001	63.090
6.001	56.394
7.001	60.494
8.001	61.294
9.001	55.194
10.001	59.294
11.001	59.594
12.000	61.656
13.000	61.694
14.000	55.594
15.000	59.594
16.001	59.994
17.001	60.294
18.001	60.594
19.001	56.594
20.001	59.394
21.001	58.894
22.001	59.194
23.058	57.989
24.001	59.485
25.002	60.094
26.002	59.194
27.002	59.394
28.002	59.094
29.002	61.694
30.001	55.950
31.001	59.794
32.001	59.194
33.063	61.293
34.001	59.589
35.001	63.094
36.002	55.594
37.002	60.694
38.002	60.394
39.002	60.594
40.002	62.894
41.002	56.994
42.067	62.905
43.002	58.283
44.002	60.194
45.002	62.094
46.003	56.994
47.002	60.855
48.002	61.294
49.002	60.094
50.002	60.494
51.002	62.794
52.002	57.694
53.068	62.752
54.002	58.238
55.002	60.394
56.060	58.651
57.003	66.165
58.067	58.641
59.003	58.755
60.003	60.494
61.003	60.294
62.003	62.194
63.003	62.794
64.003	56.494
65.002	60.454
66.003	60.594
67.003	61.794
68.003	62.294
69.003	57.794
70.003	60.994
71.003	60.494
72.003	60.494
73.003	63.194
74.003	57.094
75.003	61.594
76.004	60.494
77.004	60.694
78.004	60.594
79.004	63.394
80.004	57.794
81.069	62.623
82.003	58.452
83.003	33.797
