Time [s]	Current [nA]
0.000	27.704
1.000	63.594
2.000	65.793
3.062	62.800
4.000	62.787
5.000	63.794
6.001	63.894
7.001	65.893
8.001	64.794
9.001	59.794
10.001	64.194
11.001	63.694
12.001	63.606
13.001	65.807
14.000	65.872
15.000	59.006
16.000	63.406
17.000	63.706
17.999	64.706
18.999	65.206
19.999	61.106
20.999	63.506
21.999	63.106
23.059	65.006
23.999	62.879
24.999	65.707
25.999	58.606
26.999	62.906
27.998	62.806
28.998	63.206
29.998	67.007
30.997	60.166
31.997	63.206
32.997	63.006
33.997	63.306
34.997	65.807
35.997	60.906
36.997	64.306
38.060	66.078
38.996	60.583
39.996	62.706
40.996	65.207
42.054	62.105
42.996	62.533
43.996	62.906
44.996	63.306
45.996	65.607
47.057	61.871
47.995	62.160
48.994	64.070
49.994	63.106
50.994	62.306
51.994	64.406
52.994	60.606
53.994	64.406
54.994	63.006
55.994	63.006
56.994	65.307
57.993	65.007
58.993	61.006
59.993	65.207
60.993	64.606
61.993	64.506
62.993	66.407
63.993	67.307
64.993	60.106
65.992	64.471
66.992	64.706
67.991	66.007
68.991	66.107
69.991	61.906
70.991	64.806
71.991	45.205
72.991	30.903
73.991	44.004
74.991	53.805
75.991	53.905
76.991	60.806
78.051	63.908
79.087	63.423
80.159	36.198
