Time [s]	Current [nA]
0.000	27.031
1.000	69.393
2.000	60.594
3.000	65.293
4.000	57.894
5.000	62.594
6.001	68.593
7.001	57.294
8.057	62.115
9.001	68.319
10.062	58.995
11.056	62.569
12.001	60.100
13.001	64.294
14.001	64.694
15.000	57.552
16.001	64.094
17.061	64.616
18.001	59.675
19.001	64.594
20.001	64.494
21.001	56.894
22.001	61.094
23.001	61.994
24.001	65.094
25.070	60.387
26.002	62.226
27.002	62.594
28.002	62.094
29.002	62.294
30.002	65.093
31.002	64.394
32.001	57.452
33.001	61.294
34.001	61.194
35.001	64.094
36.002	62.394
37.002	64.394
38.002	56.894
39.002	62.094
40.002	67.193
41.059	56.002
42.002	67.438
43.002	56.994
44.002	61.594
45.002	61.594
46.097	63.156
47.067	64.014
48.062	58.487
49.011	65.115
50.002	57.007
51.002	62.294
52.002	64.694
53.002	64.894
54.002	57.794
55.002	61.694
56.003	62.094
57.101	62.744
58.003	65.515
59.003	64.394
60.062	59.390
61.003	59.399
62.003	62.094
63.065	66.848
64.003	62.254
65.003	57.494
66.004	62.994
67.003	62.556
68.003	63.094
69.003	64.694
70.003	59.494
71.003	63.094
72.003	62.394
73.003	62.494
74.003	64.794
75.003	59.794
76.004	62.494
77.004	64.094
78.004	63.494
79.004	63.094
80.004	59.294
81.004	0.500
