Time [s]	Current [nA]
0.000	15.788
1.000	57.794
2.086	62.977
3.000	61.154
4.000	61.794
5.001	60.494
6.001	60.594
7.001	57.294
8.001	62.794
9.000	61.555
10.000	60.594
11.000	60.894
12.004	62.145
13.000	56.219
14.000	63.494
15.063	57.056
16.001	64.066
17.001	60.294
18.061	59.522
19.001	59.781
20.001	60.894
21.001	60.394
22.001	59.794
23.001	59.894
24.001	56.694
25.002	61.894
26.002	60.894
27.001	59.954
28.001	59.494
29.001	62.494
30.001	57.394
31.001	61.094
32.001	60.894
33.059	57.083
34.059	59.794
35.002	60.822
36.002	62.794
37.002	61.094
38.002	60.194
39.064	56.680
40.002	61.508
41.002	62.194
42.002	60.594
43.002	61.194
44.001	60.054
45.001	60.094
46.002	57.294
47.002	62.494
48.002	61.194
49.002	59.994
50.002	59.794
51.002	57.194
52.002	60.794
53.002	62.794
54.002	61.294
55.003	59.894
56.003	60.394
57.060	59.975
58.055	58.185
59.003	64.761
60.003	60.294
61.003	38.996
62.002	35.032
63.002	41.896
64.060	51.318
65.002	60.185
66.003	58.394
67.061	56.138
68.005	65.354
69.003	57.509
70.003	61.394
71.003	59.194
72.003	60.094
73.003	59.894
74.003	57.494
75.003	62.594
76.065	57.487
77.004	64.104
78.004	60.094
79.060	58.517
80.003	60.439
81.087	62.263
82.003	58.946
83.003	59.694
84.003	59.294
85.057	6.552
