Time [s]	Current [nA]
0.000	18.095
1.061	61.822
2.000	68.257
3.000	60.594
4.000	65.993
5.088	65.863
6.001	63.959
7.001	58.894
8.001	64.294
9.001	66.193
10.001	61.494
11.066	66.003
12.000	61.343
13.000	62.794
14.000	65.993
15.000	63.594
16.001	60.094
17.001	63.194
18.001	63.194
19.001	63.894
20.001	65.193
21.001	59.994
22.001	63.794
23.001	62.694
24.001	62.594
25.001	63.394
26.002	65.193
27.002	59.694
28.002	62.694
29.001	62.857
30.001	62.694
31.001	65.393
32.001	59.894
33.001	63.594
34.001	62.694
35.001	62.694
36.002	62.894
37.002	66.293
38.068	62.095
39.002	60.701
40.002	63.194
41.002	62.194
42.002	59.694
43.002	64.394
44.002	63.194
45.002	63.694
46.003	62.394
47.002	63.557
48.002	58.994
49.002	64.794
50.002	63.894
51.002	62.694
52.002	62.494
53.002	59.194
54.002	63.294
55.002	63.694
56.003	63.194
57.003	61.694
58.003	61.894
59.003	58.294
60.003	64.494
61.003	63.894
62.003	62.894
63.065	60.163
64.002	63.494
65.002	63.194
66.003	66.293
67.003	64.194
68.065	59.975
69.003	67.690
70.069	62.939
71.003	63.912
72.003	64.494
73.003	57.894
74.003	63.294
75.080	67.744
76.004	62.115
77.069	62.060
78.070	63.430
79.004	61.450
80.057	12.249
