Time [s]	Current [nA]
0.000	27.868
0.999	57.051
1.999	56.994
2.999	58.594
3.999	53.495
5.056	54.445
6.000	59.422
7.000	56.394
8.078	52.407
9.000	58.779
10.059	54.952
11.063	56.966
12.000	59.866
13.000	56.594
14.000	53.795
15.001	58.494
16.081	57.957
17.001	55.647
18.001	56.494
19.000	56.751
20.000	54.495
21.000	58.494
22.000	51.995
23.000	60.694
24.000	56.194
25.063	55.738
26.090	50.336
27.060	58.551
28.001	55.361
29.001	56.294
30.056	58.004
31.001	55.973
32.001	58.294
33.001	51.995
34.001	56.094
35.002	56.094
36.001	57.952
37.090	58.580
38.059	53.142
39.001	54.878
40.001	56.694
41.001	61.194
42.001	53.095
43.001	58.494
44.001	52.295
45.001	56.094
46.002	56.194
47.002	55.494
48.002	57.794
49.002	58.794
50.002	52.195
51.002	60.894
52.002	56.194
53.065	56.062
54.001	56.511
55.001	51.795
56.002	56.494
57.002	56.294
58.002	56.194
59.002	58.594
60.002	58.494
61.058	53.877
62.002	54.867
63.002	61.394
64.064	55.644
65.002	56.071
66.006	57.023
67.003	52.051
68.003	61.094
69.060	53.353
70.003	56.728
71.002	58.252
72.002	52.095
73.002	55.794
74.060	57.650
75.002	56.470
76.003	58.394
77.003	56.694
78.003	57.194
79.003	55.794
80.003	55.894
81.003	36.096
82.003	34.297
83.003	44.396
84.003	50.295
85.003	54.095
86.066	54.985
87.004	54.046
88.004	58.294
89.003	51.646
90.003	30.997
