Time [s]	Current [nA]
0.000	20.347
1.000	62.194
2.055	60.752
3.000	68.036
4.000	56.694
5.000	62.594
6.001	61.094
7.001	61.494
8.001	64.394
9.001	59.094
10.062	63.990
11.000	58.203
12.061	63.236
13.000	61.975
14.000	63.194
15.000	57.894
16.001	62.094
17.001	61.694
18.001	62.194
19.001	63.694
20.001	58.894
21.001	62.194
22.001	61.094
23.001	61.394
24.001	62.794
25.001	63.294
26.002	58.894
27.002	61.794
28.002	60.894
29.001	61.555
30.001	63.694
31.001	63.394
32.001	57.494
33.001	60.994
34.001	61.294
35.001	61.394
36.060	60.863
37.002	62.096
38.061	63.072
39.002	59.399
40.002	61.394
41.002	63.194
42.002	64.294
43.002	56.694
44.002	62.494
45.002	61.094
46.002	60.955
47.002	63.494
48.061	60.712
49.060	61.956
50.002	59.017
51.002	61.294
52.002	64.194
53.002	57.894
54.002	62.094
55.002	61.094
56.003	60.094
57.003	59.894
58.003	62.294
59.003	62.294
60.003	55.194
61.003	59.594
62.003	59.894
63.003	62.294
64.002	61.355
65.002	55.994
66.062	62.222
67.003	57.380
68.003	59.994
69.003	62.094
70.003	62.294
71.003	55.194
72.003	59.594
73.003	60.394
74.003	60.994
75.091	63.011
76.004	55.307
77.004	61.794
78.004	60.494
79.004	60.894
80.058	59.861
81.061	63.204
82.108	32.757
