Time [s]	Current [nA]
0.000	55.994
1.061	62.105
2.000	61.655
3.000	63.194
4.000	55.994
5.000	60.394
6.001	65.693
7.001	57.194
8.001	61.494
9.063	60.069
10.062	61.155
11.001	58.248
12.001	60.394
13.001	62.994
14.000	62.857
15.000	56.094
16.001	60.494
17.001	60.594
18.001	60.194
19.001	63.394
20.001	57.694
21.001	60.994
22.001	60.094
23.001	60.194
24.062	64.838
25.001	60.590
26.002	55.694
27.002	60.594
28.002	60.294
29.002	60.194
30.002	63.094
31.063	59.089
32.001	59.269
33.001	60.094
34.001	64.994
35.001	56.594
36.002	62.794
37.002	54.995
38.002	60.794
39.002	64.794
40.002	59.894
41.002	57.294
42.002	62.794
43.002	55.594
44.002	59.594
45.002	65.293
46.003	57.294
47.003	61.994
48.003	55.494
49.002	60.254
50.002	59.994
51.002	59.594
52.002	62.094
53.002	62.694
54.002	55.095
55.002	59.494
56.053	61.708
57.003	59.573
58.003	60.694
59.003	61.894
60.003	55.494
61.063	61.220
62.003	57.973
63.003	62.294
64.003	62.394
65.003	55.194
66.058	61.664
67.066	58.724
68.003	59.439
69.069	57.405
70.072	62.207
71.003	59.500
72.063	61.315
73.062	59.053
74.003	55.149
75.003	34.097
76.004	36.596
77.004	48.795
78.004	58.694
79.004	52.595
80.004	61.894
81.004	61.494
82.004	55.194
83.004	59.194
84.003	27.825
