Time [s]	Current [nA]
0.000	27.669
0.934	61.664
1.934	57.894
2.934	61.594
3.934	60.394
4.934	60.694
5.935	62.594
6.935	56.294
7.935	61.494
8.935	62.094
9.935	60.494
10.935	60.394
11.998	60.295
12.935	59.866
13.991	58.138
14.934	57.470
15.935	60.294
16.935	62.494
17.935	60.294
18.996	59.184
19.935	58.780
20.935	59.794
21.935	59.694
22.935	62.494
23.935	56.794
24.997	62.800
25.936	57.244
26.936	59.794
27.936	60.994
28.936	60.894
29.936	56.794
30.936	60.194
31.935	59.854
32.935	59.494
33.935	62.494
34.935	57.494
35.936	60.394
36.994	56.422
37.936	63.157
38.936	60.194
39.936	57.394
40.936	62.294
41.936	60.494
42.936	59.994
43.936	59.694
44.936	62.094
45.937	56.494
46.937	60.294
47.937	60.994
48.936	59.754
49.936	59.394
50.936	56.994
51.936	62.094
52.936	60.294
53.936	47.195
54.936	31.797
55.937	39.796
56.937	51.895
58.001	52.250
58.937	62.601
59.937	58.494
60.937	59.694
61.937	56.694
62.937	61.894
63.937	55.194
64.997	61.786
65.938	57.441
66.937	62.056
67.937	59.994
68.937	57.294
69.937	60.894
70.998	62.859
71.994	54.111
72.937	65.529
73.937	56.994
74.937	60.794
75.938	60.194
76.938	59.894
77.938	54.695
79.003	64.031
79.938	60.422
80.938	60.494
81.992	57.205
82.938	62.996
83.937	57.252
85.078	24.559
