Time [s]	Current [nA]
0.000	47.895
0.999	62.456
1.999	60.994
2.999	59.894
3.999	59.894
4.999	59.294
6.000	57.694
7.000	61.894
8.000	60.594
9.000	59.194
10.056	56.434
11.000	65.671
12.000	56.594
13.000	60.394
14.062	56.962
15.000	63.533
16.063	56.397
17.001	60.548
18.000	61.655
19.000	59.494
20.000	59.394
21.000	58.994
22.000	61.594
23.000	55.394
24.056	57.949
25.000	63.447
26.001	58.694
27.001	59.394
28.061	58.768
29.001	59.356
30.001	60.794
31.001	59.294
32.001	59.594
33.001	61.094
34.001	54.595
35.001	61.794
36.001	60.054
37.001	59.194
38.001	58.994
39.062	57.864
40.001	60.058
41.001	60.194
42.001	59.094
43.001	58.594
44.001	60.994
45.001	55.194
46.002	61.894
47.002	60.094
48.002	59.194
49.002	59.494
50.002	56.094
51.002	61.194
52.002	60.394
53.001	58.553
54.001	59.094
55.001	59.094
56.002	57.094
57.002	61.094
58.002	59.794
59.002	58.594
60.002	58.894
61.002	61.194
62.002	56.294
63.002	59.894
64.002	59.194
65.060	55.529
66.060	58.494
67.007	64.513
68.003	56.420
69.003	60.094
70.002	58.753
71.059	55.434
72.002	64.257
73.002	55.594
74.002	59.794
75.002	59.794
76.003	58.794
77.003	58.794
78.003	55.694
79.003	61.294
80.061	56.611
81.003	62.202
82.003	58.994
83.003	60.294
84.212	23.488
