Time [s]	Current [nA]
0.000	31.071
0.944	64.718
1.944	56.194
2.944	60.394
3.944	59.194
4.999	55.729
6.004	60.651
6.945	59.824
8.033	59.920
9.006	61.042
9.944	57.031
10.944	59.394
11.944	61.794
12.944	56.694
13.944	60.694
14.944	49.195
15.945	27.997
16.945	37.696
17.945	41.996
18.945	53.195
19.945	56.894
20.945	56.494
22.000	56.108
22.945	65.284
23.945	57.094
24.945	60.694
25.946	59.094
26.945	59.854
27.945	61.494
28.945	60.594
29.945	57.894
30.945	60.494
31.945	59.494
32.945	59.794
33.945	62.294
35.012	59.187
35.946	58.774
37.012	61.908
38.009	60.074
38.946	58.372
39.946	57.194
40.946	62.294
41.946	61.094
42.946	59.594
43.945	60.254
44.945	57.394
45.946	61.994
46.946	61.094
48.009	57.943
48.947	65.025
49.946	55.150
50.946	62.194
51.946	62.794
52.946	55.694
53.946	65.293
54.946	54.895
56.008	64.555
56.947	60.058
57.947	55.394
58.947	61.794
59.947	60.494
60.947	60.794
61.946	62.456
62.946	57.194
63.946	61.294
64.946	59.794
65.947	59.794
66.947	62.794
67.947	55.394
68.947	61.894
69.947	60.694
71.004	56.948
71.947	63.832
72.947	61.994
73.947	57.094
75.002	58.193
75.948	63.380
76.948	59.994
77.948	62.294
78.947	54.749
79.947	63.194
80.947	60.394
81.947	59.494
82.947	59.794
83.947	62.294
85.037	31.494
