Time [s]	Current [nA]
0.000	41.196
1.065	64.031
2.000	59.138
3.000	64.294
4.000	58.194
5.058	58.840
6.001	64.469
7.001	60.894
8.000	60.955
9.000	63.394
10.000	57.794
11.000	61.594
12.000	60.794
13.000	61.094
14.000	62.994
15.064	60.765
16.001	58.906
17.001	61.494
18.001	61.094
19.001	60.594
20.001	57.294
21.001	62.994
22.001	61.794
23.001	60.494
24.001	60.794
25.060	59.635
26.001	61.418
27.001	61.294
28.001	61.994
29.001	60.894
30.060	57.501
31.001	61.843
32.001	63.394
33.001	55.794
34.001	65.793
35.002	60.894
36.002	57.694
37.074	58.669
38.002	60.878
39.002	60.694
40.002	60.794
41.002	60.594
42.061	60.145
43.001	61.802
44.001	60.994
45.001	60.194
46.002	60.394
47.054	59.975
48.002	57.589
49.002	62.794
50.002	35.796
51.002	27.797
52.002	38.396
53.002	48.295
54.002	49.695
55.003	56.694
56.003	57.094
57.003	59.194
58.003	61.294
59.003	55.794
60.002	61.655
61.002	60.694
62.002	59.694
63.002	59.294
64.002	61.994
65.065	59.410
66.003	57.777
67.003	59.394
68.003	59.794
69.003	59.894
70.003	57.494
71.003	62.994
72.061	57.178
73.003	64.219
74.003	59.594
75.003	56.994
76.004	62.994
77.004	54.595
78.003	61.455
79.067	62.682
80.003	58.434
81.061	59.351
82.003	61.247
83.061	57.272
84.003	58.699
