Time [s]	Current [nA]
0.000	4.920
1.000	55.394
2.000	62.894
3.004	61.448
4.000	56.320
5.000	61.594
6.001	63.894
7.000	64.158
8.000	56.294
9.000	60.894
10.000	60.894
11.000	61.694
12.000	63.794
13.000	58.094
14.060	63.579
15.000	58.718
16.001	61.194
17.001	63.894
18.001	57.694
19.001	61.594
20.062	63.707
21.064	60.473
22.065	61.432
23.001	61.639
24.001	58.194
25.000	62.256
26.001	60.794
27.001	60.894
28.001	63.294
29.001	62.994
30.001	55.794
31.001	62.094
32.001	60.794
33.001	60.894
34.001	63.494
35.001	58.094
36.002	61.494
37.067	62.435
38.002	58.818
39.002	63.894
40.002	55.894
41.002	62.794
42.001	61.756
43.001	61.094
44.001	61.794
45.001	57.794
46.002	63.494
47.002	61.994
48.002	60.594
49.002	60.894
50.002	57.594
51.002	61.294
52.002	64.494
53.002	61.594
54.002	61.094
55.002	61.094
56.003	57.794
57.059	59.748
58.003	64.718
59.003	60.394
60.002	60.755
61.002	62.194
62.062	59.145
63.002	60.845
64.002	61.594
65.061	57.745
66.003	64.856
67.003	62.894
68.065	60.163
69.061	55.617
70.003	64.856
71.064	57.110
72.003	64.424
73.003	57.694
74.003	62.394
75.065	58.053
76.004	64.211
77.003	60.454
78.003	57.494
79.003	63.394
80.003	62.194
81.003	61.194
82.061	57.367
83.003	7.430
