Time [s]	Current [nA]
0.000	22.122
1.000	58.494
1.999	62.156
2.999	61.694
4.065	63.033
4.999	59.309
6.062	60.352
7.000	62.147
8.000	61.994
9.065	62.905
10.000	59.459
11.058	59.918
12.008	66.520
13.000	57.555
14.000	61.794
15.001	61.094
16.001	61.194
17.059	60.107
18.001	61.459
19.001	62.094
20.000	61.756
21.000	61.294
22.056	60.032
23.000	65.460
24.000	58.794
25.000	62.194
26.001	61.594
27.001	49.595
28.001	33.197
29.001	40.496
30.057	49.711
31.001	60.058
32.001	59.694
33.016	60.979
34.001	57.659
35.001	63.694
36.002	61.694
37.001	61.055
38.001	61.594
39.001	57.994
40.001	63.294
41.001	56.594
42.060	63.261
43.001	59.186
44.001	61.294
45.001	63.894
46.002	58.294
47.002	61.494
48.002	61.394
49.002	61.194
50.002	64.194
51.002	58.294
52.002	60.794
53.002	62.094
54.002	60.894
55.064	57.393
56.068	63.838
57.002	61.129
58.002	61.094
59.063	57.393
60.002	64.956
61.068	59.844
62.002	60.808
63.002	60.994
64.002	60.894
65.002	60.594
66.003	60.594
67.003	57.894
68.003	63.194
69.003	61.294
70.003	60.494
71.003	60.794
72.002	57.452
73.099	62.072
74.002	62.009
75.002	61.194
76.003	60.494
77.061	57.745
78.003	60.822
79.003	63.394
80.003	55.294
81.003	60.894
82.003	60.894
83.003	61.494
84.003	0.800
