Time [s]	Current [nA]
0.000	15.064
1.000	46.395
2.000	51.995
3.000	55.794
4.000	55.094
5.001	60.594
6.001	60.294
7.001	59.094
8.052	56.227
9.059	61.364
10.001	60.079
11.001	59.994
12.060	57.407
13.000	58.505
14.055	61.131
15.000	59.888
16.001	61.394
17.001	55.094
18.001	59.194
19.001	59.194
20.001	61.494
21.001	61.494
22.001	54.895
23.001	59.494
24.001	58.994
25.001	59.194
26.002	61.494
27.064	58.280
28.002	58.097
29.002	59.094
30.062	61.409
31.001	58.674
32.103	61.337
33.001	54.449
34.001	59.594
35.001	56.694
36.002	56.094
37.002	57.594
38.057	56.108
39.002	54.915
40.002	56.194
41.002	55.794
42.002	56.094
43.002	58.394
44.002	57.794
45.063	53.485
46.003	54.144
47.054	58.415
48.002	55.796
49.002	58.294
50.002	52.695
51.065	57.285
52.002	54.210
53.002	56.194
54.002	59.294
55.002	53.495
56.003	56.594
57.059	57.949
58.003	54.973
59.003	59.394
60.003	58.994
61.014	57.462
62.003	53.079
63.003	56.594
64.003	56.794
65.003	59.294
66.003	54.349
67.003	57.894
68.003	56.494
69.064	58.430
70.003	57.822
71.003	59.894
72.003	53.595
73.003	57.594
74.003	57.294
75.003	57.494
76.004	60.094
77.004	54.795
78.004	57.394
79.004	56.994
80.004	58.094
81.004	59.794
82.004	57.794
83.003	54.949
84.003	58.194
85.003	57.694
86.004	58.194
87.147	39.016
