Time [s]	Current [nA]
0.000	2.265
1.000	47.695
2.000	52.295
3.000	51.595
4.000	49.995
5.059	47.632
6.001	55.090
7.063	49.995
8.071	45.730
9.001	54.618
10.000	50.145
11.000	50.495
12.000	48.195
13.055	49.948
14.000	53.857
15.001	50.195
16.059	47.727
17.001	55.515
18.001	47.395
19.061	49.335
20.001	53.824
21.058	47.772
22.058	50.295
23.001	51.214
24.001	52.495
25.002	51.195
26.002	50.595
27.002	50.695
28.058	49.900
29.001	48.988
30.001	53.295
31.001	50.995
32.001	50.495
33.001	50.795
34.001	48.195
35.002	52.495
36.002	51.695
37.002	50.495
38.002	50.895
39.002	51.595
40.002	47.695
41.002	52.895
42.002	50.995
43.059	47.772
44.060	50.744
45.001	51.217
46.002	52.695
47.002	51.595
48.002	50.095
49.002	50.695
50.002	50.595
51.002	48.695
52.002	52.395
53.002	51.095
54.002	50.695
55.003	50.595
56.003	52.195
57.003	48.695
58.003	51.395
59.003	50.595
60.003	50.495
61.058	48.052
62.003	51.000
63.002	52.547
64.002	51.495
65.002	50.695
66.062	47.776
67.005	55.562
68.003	47.590
69.064	49.100
70.003	54.414
71.003	50.195
72.003	50.595
73.003	48.095
74.003	52.295
75.003	51.395
76.004	50.395
77.004	50.595
78.004	47.695
79.004	50.895
80.003	52.747
81.061	47.916
82.060	50.445
83.003	53.441
84.062	49.192
85.003	50.898
86.004	51.795
87.004	50.395
88.004	50.395
89.004	51.695
90.004	46.895
91.061	49.759
92.004	29.159
93.004	29.597
94.004	38.196
95.004	41.196
96.005	48.595
97.005	49.795
98.004	49.445
99.004	50.395
100.104	51.722
101.004	6.999
