Time [s]	Current [nA]
0.000	4.953
1.000	74.593
2.053	70.268
3.000	77.711
4.000	70.193
5.001	76.392
6.000	73.366
7.054	69.063
8.000	76.102
9.000	75.692
10.000	69.893
11.000	73.593
12.061	69.362
13.054	72.299
14.000	75.997
15.001	69.793
16.058	72.084
17.001	78.253
18.059	68.613
19.001	76.744
20.001	74.893
21.107	68.619
22.001	75.160
23.058	68.678
24.000	76.956
25.000	72.693
26.001	75.892
27.001	68.993
28.001	73.493
29.001	72.393
30.001	72.693
31.001	66.793
32.001	73.093
33.001	76.192
34.001	72.193
35.002	71.393
36.002	72.493
37.002	74.893
38.064	71.085
39.002	70.036
40.002	72.293
41.001	72.665
42.001	72.793
43.058	70.286
44.001	71.467
45.058	67.796
46.002	75.416
47.002	71.393
48.002	74.393
49.055	64.856
50.002	75.916
51.002	71.393
52.002	70.993
53.002	70.793
54.002	68.193
55.003	74.193
56.003	72.393
57.003	71.993
58.061	68.141
59.002	72.363
60.063	75.676
61.002	68.683
62.002	72.293
63.002	70.793
64.002	70.993
65.002	74.093
66.003	67.693
67.003	72.293
68.003	70.693
69.061	67.574
70.056	20.902
