Time [s]	Current [nA]
0.000	12.045
1.000	46.195
2.059	45.699
2.999	46.378
3.999	47.295
5.058	44.135
6.000	49.358
7.073	44.264
8.000	47.568
9.000	46.495
10.000	22.498
11.000	26.597
12.000	34.797
13.000	36.196
14.062	45.664
15.059	40.859
16.058	45.141
17.001	49.094
18.001	47.195
19.001	44.896
20.058	45.596
21.000	50.207
22.000	45.995
23.056	44.030
24.000	51.478
25.000	44.296
26.001	47.395
27.001	47.395
28.064	43.552
29.001	49.301
30.001	43.896
31.059	46.026
32.058	47.243
33.001	48.776
34.001	46.995
35.059	45.880
36.002	45.913
37.001	48.444
38.063	44.158
39.058	46.729
40.001	49.094
41.060	45.510
42.001	46.435
43.058	45.218
44.001	49.094
45.059	44.177
46.059	48.495
47.002	44.958
48.002	49.195
49.064	44.063
50.002	49.462
51.059	44.083
52.059	48.395
53.064	48.552
54.058	42.953
55.001	49.306
56.059	43.893
57.002	50.154
58.059	45.312
59.002	46.867
60.002	47.095
61.002	46.195
62.058	43.746
63.002	51.160
64.002	44.396
65.002	47.495
66.003	46.195
67.003	46.795
68.003	46.495
69.003	44.696
70.003	48.095
71.003	47.195
72.002	46.442
73.002	46.195
74.002	48.195
75.002	44.296
76.003	46.895
77.003	47.295
78.003	46.295
79.003	46.495
80.003	44.196
81.003	48.995
82.003	46.995
83.003	46.395
84.003	46.695
85.003	47.795
86.004	43.396
87.004	48.295
88.004	46.595
89.004	46.395
90.003	46.742
91.003	44.096
92.058	45.872
93.003	49.942
94.003	46.095
95.003	46.595
96.004	48.095
97.004	42.996
98.004	48.595
99.062	44.041
100.060	45.987
101.058	46.488
102.062	48.402
103.004	46.917
104.063	44.660
105.004	49.092
106.005	46.395
107.004	46.742
108.004	43.696
109.108	36.591
