Time [s]	Current [nA]
0.000	27.669
1.057	49.759
2.000	55.774
3.000	49.995
4.000	54.095
5.000	53.295
6.057	49.332
7.001	55.609
8.001	49.095
9.001	52.595
10.001	54.595
11.001	52.595
12.001	51.695
13.001	52.095
14.001	49.595
15.000	53.548
16.001	53.095
17.001	51.595
18.001	51.595
19.074	50.042
20.001	51.775
21.001	53.895
22.001	51.895
23.001	51.495
24.001	51.695
25.001	48.795
26.002	53.595
27.002	52.795
28.002	44.396
29.002	24.598
30.002	31.597
31.063	40.053
32.002	45.256
33.001	48.744
34.001	49.295
35.001	50.795
36.002	49.095
37.002	53.695
38.002	52.395
39.002	52.095
40.002	51.195
41.002	51.495
42.002	49.495
43.002	53.895
44.002	52.195
45.002	51.695
46.003	51.695
47.003	53.495
48.003	49.395
49.082	53.748
50.064	48.060
51.065	51.643
52.002	55.384
53.002	49.395
54.060	50.562
55.002	55.515
56.003	51.595
57.003	51.595
58.003	48.895
59.003	52.195
60.061	50.562
61.003	55.621
62.003	51.395
63.003	51.695
64.053	51.138
65.003	51.679
66.004	52.895
67.004	51.495
68.003	51.847
69.003	53.395
70.003	48.095
71.003	54.095
72.003	52.295
73.003	51.195
74.003	51.695
75.003	49.095
76.004	53.595
77.004	53.295
78.004	51.795
79.004	51.595
80.004	51.595
81.004	49.395
82.004	53.295
83.004	52.195
84.004	51.595
85.003	51.646
86.004	49.195
87.004	53.495
88.004	52.595
89.004	52.095
90.004	51.195
91.004	51.795
92.004	49.095
93.004	53.495
94.004	52.895
95.004	51.295
96.005	51.695
97.005	49.395
98.239	27.064
