Time [s]	Current [nA]
0.000	47.701
1.000	49.195
2.000	51.495
3.000	50.995
4.000	50.995
5.000	48.595
6.001	52.695
7.001	51.995
8.001	50.595
9.001	50.695
10.001	51.195
11.001	48.195
12.001	52.795
13.001	51.395
14.000	51.046
15.000	51.195
16.001	48.495
17.001	52.995
18.001	46.395
19.062	53.246
20.001	49.090
21.001	50.795
22.001	52.795
23.001	48.595
24.001	51.195
25.001	50.795
26.002	50.495
27.002	52.595
28.002	47.395
29.002	51.695
30.002	51.195
31.001	50.345
32.001	50.595
33.001	52.595
34.057	49.711
35.063	51.438
36.002	48.983
37.002	50.695
38.059	49.664
39.002	54.714
40.067	49.385
41.002	49.193
42.067	52.107
43.002	48.872
44.002	52.695
45.002	47.895
46.003	51.395
47.003	50.595
48.003	50.395
49.002	51.346
50.063	49.288
51.002	40.890
52.002	24.198
53.068	33.768
54.002	38.005
55.002	45.995
56.003	45.895
57.003	49.495
58.003	50.195
59.003	50.795
60.003	51.195
61.003	48.195
62.003	52.595
63.003	50.995
64.003	50.495
65.003	50.595
66.003	48.243
67.003	52.595
68.095	51.735
69.065	47.109
70.003	54.152
71.003	50.595
72.003	47.995
73.003	52.495
74.003	50.995
75.003	50.795
76.004	50.795
77.004	48.095
78.004	52.495
79.004	50.895
80.004	46.895
81.004	50.595
82.004	50.495
83.004	51.995
84.003	52.247
85.016	50.291
86.004	46.756
87.004	50.395
88.004	52.595
89.004	51.795
90.004	47.495
91.004	50.795
92.004	50.795
93.004	50.595
94.004	52.995
95.004	48.295
96.005	51.295
97.005	50.495
98.005	50.395
99.007	52.290
100.059	23.287
