Time [s]	Current [nA]
0.000	31.497
1.000	45.595
2.000	45.995
3.058	45.931
4.000	50.738
5.000	43.996
6.001	47.595
7.063	48.018
8.001	44.345
9.001	47.695
10.001	48.495
11.001	43.896
12.001	47.095
13.001	46.495
14.001	49.295
15.001	48.595
16.062	47.637
17.001	46.002
18.001	47.395
19.059	48.955
20.001	47.660
21.001	49.695
22.001	44.396
23.001	48.195
24.001	47.295
25.001	47.295
26.002	50.395
27.002	49.995
28.002	44.596
29.002	47.395
30.008	51.883
31.057	43.942
32.002	54.174
33.002	44.796
34.061	49.476
35.062	48.495
36.002	46.910
37.053	48.235
38.002	53.419
39.002	44.896
40.002	48.595
41.002	48.795
42.002	39.396
43.065	21.258
44.077	29.740
45.002	36.861
46.003	42.396
47.003	45.795
48.003	48.895
49.003	51.195
50.062	48.248
51.002	47.868
52.058	51.699
53.002	49.677
54.061	49.476
55.012	53.153
56.068	48.385
57.003	48.979
58.003	50.295
59.003	52.595
60.003	47.495
61.003	50.895
62.003	49.895
63.003	50.095
64.003	51.995
65.003	45.995
66.004	51.695
67.063	48.248
68.004	53.130
69.003	49.945
70.003	47.395
71.003	51.695
72.003	50.295
73.003	50.695
74.058	48.052
75.003	54.809
76.011	50.740
77.004	48.233
78.004	50.195
79.004	49.795
80.004	49.995
81.064	48.769
82.066	52.789
83.004	48.609
84.004	50.095
85.004	49.795
86.004	50.746
87.004	48.195
88.004	52.295
89.059	48.147
90.004	53.222
91.061	47.488
92.004	55.456
93.004	47.595
94.080	52.504
95.004	48.913
96.005	50.095
97.005	50.795
98.012	52.031
99.062	46.091
100.005	54.077
101.005	50.395
102.005	50.295
103.085	40.459
