Time [s]	Current [nA]
0.000	25.429
1.000	45.795
2.000	45.695
3.064	44.262
4.000	46.149
5.000	45.995
6.001	46.395
7.001	45.795
8.059	42.907
9.059	47.295
10.001	45.537
11.001	46.295
12.059	43.001
13.001	47.978
14.064	44.116
15.002	44.713
16.058	44.882
17.001	47.291
18.001	20.998
19.001	25.497
20.001	30.997
21.001	38.796
22.001	41.596
23.001	42.496
24.062	45.519
25.001	45.363
26.002	46.695
27.063	45.424
28.002	44.511
29.002	45.895
30.002	45.795
31.002	43.696
32.002	47.695
33.064	43.310
34.001	48.875
35.001	45.595
36.078	42.840
37.002	47.506
38.002	47.395
39.056	43.923
40.002	48.304
41.002	41.796
42.002	47.995
43.002	43.196
44.002	45.595
45.002	46.295
46.003	45.595
47.003	46.195
48.003	47.495
49.003	43.096
50.069	47.462
51.002	44.154
52.002	45.695
53.002	47.395
54.002	42.796
55.002	46.695
56.056	44.060
57.003	47.936
58.003	45.495
59.063	44.712
60.064	48.247
61.055	41.469
62.003	47.886
63.003	45.495
64.003	46.995
65.003	41.596
66.004	47.495
67.061	43.610
68.004	48.139
69.003	45.241
70.003	43.196
71.003	46.995
72.003	45.795
73.003	44.995
74.003	45.195
75.003	46.795
76.071	43.295
77.004	46.726
78.004	46.095
79.004	45.595
80.004	45.295
81.004	43.296
82.065	44.388
83.004	48.983
84.004	45.595
85.004	45.295
86.101	41.602
87.004	47.836
88.004	47.095
89.004	41.896
90.004	48.795
91.004	45.295
92.004	42.896
93.004	47.395
94.004	41.696
95.071	47.462
96.005	43.893
97.005	45.395
98.005	47.195
99.005	43.096
100.065	47.071
101.005	43.932
102.005	45.695
103.005	47.395
104.065	44.713
105.004	44.094
106.004	46.205
107.004	45.605
108.004	45.605
109.063	44.575
110.067	48.312
111.061	41.855
112.004	5.621
