Time [s]	Current [nA]
0.000	36.350
1.061	53.529
2.000	48.451
3.064	47.082
4.000	53.200
5.001	49.895
6.001	47.495
7.058	48.529
8.001	53.653
9.064	46.750
10.000	52.879
11.000	47.395
12.000	51.295
13.000	49.795
14.000	50.195
15.000	49.595
16.001	49.695
17.001	47.295
18.001	51.095
19.001	50.095
20.058	46.637
21.001	52.487
22.001	43.396
23.001	46.695
24.001	46.895
25.002	45.995
26.002	45.295
27.056	42.595
28.055	46.242
29.001	46.296
30.001	47.495
31.001	45.995
32.001	46.195
33.001	44.196
34.001	46.595
35.001	48.895
36.002	46.395
37.002	46.095
38.059	43.799
39.002	46.125
40.002	48.495
41.002	42.896
42.002	46.495
43.002	46.295
44.002	46.495
45.001	48.844
46.002	44.296
47.002	47.395
48.002	46.995
49.002	47.295
50.064	46.135
51.002	48.076
52.002	47.395
53.002	46.895
54.002	47.595
55.106	48.590
56.068	46.045
57.003	47.696
58.065	44.817
59.065	47.595
60.064	48.043
61.069	49.348
62.061	45.157
63.002	51.004
64.002	48.495
65.002	47.995
66.003	47.795
67.067	47.270
68.003	48.606
69.065	45.476
70.064	47.943
71.064	47.595
72.003	47.706
73.097	50.178
74.065	44.624
75.003	51.487
76.004	48.195
77.004	44.196
78.004	49.895
79.004	50.395
80.003	44.840
81.063	49.335
82.069	48.405
83.003	48.603
84.003	49.395
85.003	46.995
86.070	50.464
87.004	46.997
88.004	48.495
89.004	37.696
90.004	20.398
91.004	30.597
92.004	38.096
93.004	42.396
94.083	48.188
95.004	45.598
96.070	47.976
97.005	48.124
98.004	49.945
99.061	47.299
100.060	51.646
101.004	50.207
102.004	50.495
103.066	46.323
104.004	52.020
105.076	46.027
106.058	12.422
