Time [s]	Current [nA]
0.000	45.395
1.000	46.495
2.000	53.395
3.062	49.053
4.061	50.846
4.999	54.472
6.000	48.695
7.000	52.795
8.000	46.995
9.000	50.595
10.000	50.295
11.087	51.789
12.000	51.583
13.000	52.495
14.000	46.795
15.000	50.095
16.001	50.295
17.063	53.949
18.001	50.208
19.001	46.895
20.001	50.595
21.000	50.345
22.000	54.595
23.000	48.295
24.000	52.095
25.059	48.766
26.001	48.191
27.001	54.595
28.063	49.901
29.001	51.061
30.077	47.300
31.001	50.536
32.001	50.595
33.062	52.775
34.001	50.474
35.065	50.324
36.002	48.768
37.002	50.295
38.058	47.722
39.001	55.032
40.001	46.895
41.063	53.573
42.001	49.036
43.001	50.395
44.001	49.995
45.060	49.333
46.002	50.844
47.056	48.762
48.002	52.955
49.002	49.995
50.062	49.146
51.002	48.931
52.002	53.095
53.002	50.595
54.002	50.295
55.002	49.895
56.059	49.048
57.002	50.896
58.002	51.395
59.002	50.095
60.067	51.826
61.002	49.407
62.060	48.766
63.002	50.526
64.058	48.480
65.002	53.067
66.003	49.895
67.003	52.395
68.003	47.995
69.003	45.495
70.003	23.398
71.003	30.197
72.003	38.196
73.003	41.096
74.002	48.143
75.002	48.495
76.003	48.795
77.060	47.677
78.062	52.390
79.003	51.430
80.003	50.595
81.003	51.295
82.003	50.395
83.059	47.533
84.062	52.138
85.003	50.898
86.061	48.529
87.004	52.911
88.004	50.195
89.004	52.095
90.079	49.576
91.003	49.237
92.003	50.595
93.003	50.095
94.003	50.295
95.003	51.895
96.004	47.695
97.004	51.195
98.063	47.398
99.004	53.236
100.004	47.495
101.004	0.700
