Time [s]	Current [nA]
0.000	24.872
1.000	63.494
2.000	61.994
3.000	58.794
3.999	63.657
4.999	62.394
6.000	44.596
7.000	22.198
8.000	31.897
9.000	38.896
10.000	51.595
11.000	53.895
12.000	57.994
13.054	58.723
14.000	68.386
15.000	59.294
16.001	63.194
17.001	62.094
18.001	61.494
19.058	58.556
20.063	64.869
21.001	62.254
22.000	62.556
23.000	61.694
24.062	58.280
25.000	62.254
26.001	63.794
27.001	61.794
28.001	62.494
29.063	57.998
30.001	65.558
31.001	58.494
32.001	63.694
33.001	62.994
34.001	61.894
35.001	61.794
36.002	58.694
37.002	62.794
38.002	64.094
39.001	61.956
40.001	61.494
41.001	61.394
42.001	63.094
43.001	58.294
44.001	62.094
45.001	60.494
46.002	60.894
47.002	62.894
48.002	56.594
49.002	63.594
50.002	61.594
51.064	57.527
52.002	64.492
53.002	62.794
54.002	57.894
55.002	62.494
56.003	60.894
57.002	60.855
58.002	61.394
59.002	57.594
60.002	62.994
61.002	61.994
62.002	60.594
63.060	57.650
64.002	60.928
65.057	59.766
66.003	64.476
67.065	57.621
68.003	64.706
69.003	60.694
70.003	57.594
71.003	62.994
72.064	57.770
73.003	64.317
74.002	60.454
75.002	57.594
76.003	62.094
77.063	59.051
78.003	64.143
79.003	60.394
80.003	60.194
81.003	57.194
82.003	62.494
83.003	61.794
84.056	21.460
