Time [s]	Current [nA]
0.000	26.275
1.058	60.485
2.000	66.766
3.000	59.594
4.000	64.594
5.001	57.294
6.001	62.394
7.001	62.094
8.001	62.494
9.001	64.594
10.063	61.858
11.001	59.589
12.055	58.248
13.001	65.004
14.001	63.394
15.002	56.294
16.002	64.394
17.001	63.757
18.001	61.794
19.001	61.894
20.001	58.294
21.001	63.794
22.001	56.694
23.056	62.837
24.001	64.226
25.002	56.694
26.002	62.894
27.002	58.794
28.002	61.494
29.002	61.094
30.059	58.367
31.002	66.589
32.002	58.394
33.002	61.994
34.002	60.794
35.001	60.955
36.002	60.594
37.002	58.394
38.002	62.994
39.002	62.594
40.002	60.494
41.002	60.894
42.061	59.767
43.063	64.365
44.002	59.312
45.003	62.094
46.065	57.716
47.003	65.239
48.003	58.394
49.003	63.594
50.012	61.243
51.003	55.998
52.002	60.555
53.002	63.294
54.002	62.694
55.002	61.494
56.003	56.894
57.065	62.235
58.003	58.523
59.003	62.594
60.003	63.094
61.003	56.794
62.003	61.594
63.069	63.314
64.003	61.343
65.003	55.594
66.004	64.194
67.004	61.394
68.004	60.494
69.004	60.794
70.003	63.157
71.003	57.894
72.003	61.694
73.003	60.894
74.003	60.794
75.003	62.194
76.004	61.994
77.004	57.894
78.004	61.994
79.004	60.294
80.004	60.894
81.004	62.694
82.058	22.199
