Time [s]	Current [nA]
0.000	58.094
1.000	63.994
2.000	57.794
3.000	61.194
4.000	61.894
5.001	60.394
6.001	60.394
7.001	57.894
8.001	62.394
9.001	61.294
10.058	57.516
11.000	64.431
12.000	56.994
13.000	61.794
14.000	60.594
15.060	56.840
16.058	60.615
17.001	63.408
18.001	56.494
19.001	62.194
20.001	60.194
21.001	59.994
22.001	59.094
23.001	56.594
24.001	60.494
25.002	56.494
26.002	60.894
27.002	59.794
28.001	59.754
29.001	62.094
30.001	56.694
31.001	59.794
32.064	62.458
33.001	58.159
34.001	62.394
35.001	56.194
36.002	62.494
37.002	61.494
38.002	60.294
39.060	57.461
40.002	60.928
41.002	63.594
42.002	55.694
43.002	60.094
44.002	60.594
45.094	61.222
46.002	61.448
47.002	56.494
48.002	60.794
49.002	60.394
50.002	60.594
51.002	62.694
52.002	57.494
53.002	60.794
54.002	60.694
55.002	59.894
56.003	59.694
57.003	57.594
58.003	62.594
59.062	57.218
60.003	64.287
61.003	60.294
62.003	57.594
63.002	62.256
64.019	60.564
65.002	56.556
66.068	62.060
67.003	57.962
68.003	63.494
69.065	59.693
70.003	58.949
71.003	60.194
72.003	60.494
73.003	57.694
74.003	61.494
75.058	59.007
76.004	58.451
77.004	59.894
78.004	64.694
79.004	56.794
80.003	62.857
81.003	60.594
82.003	60.094
83.056	16.618
