Time [s]	Current [nA]
0.000	30.922
1.089	67.854
2.058	62.945
2.999	70.875
4.058	62.128
4.999	69.706
6.000	61.794
7.000	66.893
8.000	60.294
9.000	70.893
10.000	65.193
11.000	60.594
12.000	67.193
13.059	64.677
14.000	64.287
15.000	65.293
16.001	65.693
17.001	68.193
18.066	64.313
19.001	63.844
20.000	65.459
21.000	66.093
22.084	61.064
23.000	69.644
24.059	64.677
25.000	70.875
26.001	62.094
27.001	58.294
28.001	54.195
29.001	59.594
30.001	51.095
31.066	58.961
32.001	54.112
33.001	56.894
34.001	60.594
35.061	56.935
36.067	58.443
37.002	55.716
38.001	56.951
39.001	59.694
40.001	55.194
41.001	58.994
42.001	59.294
43.001	59.094
44.001	59.094
45.001	61.694
46.002	56.994
47.002	60.494
48.002	60.594
49.002	60.794
50.002	61.894
51.085	56.966
52.002	59.427
53.002	61.494
54.002	60.594
55.001	60.855
56.002	58.694
57.002	64.994
58.064	59.034
59.061	62.080
60.002	61.418
61.002	63.894
62.082	66.012
63.002	63.798
64.002	58.794
65.002	63.494
66.003	63.794
67.003	65.593
68.069	62.001
69.003	61.557
70.058	60.184
71.003	67.189
72.003	64.094
73.002	65.959
74.002	59.994
75.002	65.293
76.003	63.094
77.003	63.894
78.068	62.811
79.003	65.555
80.003	65.393
81.003	0.500
