Time [s]	Current [nA]
0.000	51.587
1.066	65.378
2.000	60.165
3.000	65.094
4.000	59.294
5.056	59.425
6.001	65.496
7.001	62.294
8.001	64.294
9.001	56.794
10.001	64.294
11.001	62.694
12.001	61.394
13.001	60.794
14.001	63.194
15.068	60.501
16.001	59.908
17.001	61.694
18.001	61.494
19.001	61.794
20.001	62.694
21.067	60.032
22.001	59.844
23.001	60.694
24.063	63.082
25.002	60.655
26.002	58.094
27.064	63.553
28.002	58.416
29.058	57.949
30.002	63.977
31.002	58.194
32.002	62.794
33.001	61.455
34.001	60.394
35.057	57.625
36.002	66.448
37.002	58.294
38.002	61.294
39.002	62.694
40.002	61.194
41.002	56.194
42.002	63.294
43.002	63.494
44.002	56.394
45.003	66.093
46.003	55.894
47.003	63.394
48.003	62.494
49.003	61.994
50.003	55.994
51.002	61.155
52.002	60.994
53.002	63.494
54.061	59.862
55.002	59.930
56.003	60.994
57.003	66.293
58.003	57.794
59.003	60.894
60.003	58.694
61.003	61.194
62.003	60.794
63.062	62.694
64.003	60.993
65.003	62.994
66.066	58.939
67.004	58.097
68.065	62.293
69.003	59.269
70.003	63.694
71.061	59.918
72.003	60.291
73.003	66.193
74.003	60.794
75.003	57.794
76.004	63.694
77.004	56.194
78.004	60.894
79.004	60.894
80.004	60.594
81.004	63.294
82.058	0.474
