Time [s]	Current [nA]
0.000	23.321
1.000	48.195
2.000	53.095
3.000	48.895
4.000	51.795
5.000	50.595
6.001	50.695
7.001	47.895
8.001	50.995
9.001	53.095
10.001	50.195
11.001	50.195
12.001	50.195
13.001	52.495
14.001	48.095
15.197	42.925
16.001	60.442
17.001	50.395
18.001	50.795
19.001	52.895
20.001	48.995
21.001	51.195
22.001	51.095
23.001	50.195
24.001	52.295
25.001	51.795
26.002	46.395
27.002	49.895
28.063	51.267
29.002	48.344
30.059	49.286
31.002	55.456
32.001	46.041
33.063	51.972
34.001	48.076
35.001	52.195
36.002	51.795
37.002	46.295
38.002	50.495
39.002	49.795
40.002	50.395
41.002	52.095
42.002	47.495
43.002	50.395
44.064	51.972
45.065	50.695
46.003	50.848
47.003	47.195
48.003	50.995
49.003	50.895
50.002	50.045
51.002	50.195
52.002	52.395
53.002	52.895
54.002	46.595
55.002	50.395
56.003	50.395
57.003	52.195
58.003	51.195
59.003	46.695
60.003	50.095
61.003	49.595
62.060	51.650
63.003	50.578
64.003	51.695
65.003	46.595
66.004	49.995
67.003	49.845
68.003	50.395
69.080	47.163
70.003	50.916
71.003	50.395
72.003	50.095
73.003	49.495
74.003	51.895
75.003	52.695
76.004	46.495
77.004	49.995
78.004	49.695
79.004	50.195
80.004	12.799
