Time [s]	Current [nA]
0.000	12.312
1.000	28.797
2.000	30.097
3.000	28.197
4.000	29.697
5.000	29.097
6.001	28.597
7.001	28.897
8.063	28.152
9.001	28.888
10.059	28.920
11.063	29.180
12.057	29.373
13.000	31.174
14.000	27.597
15.000	30.397
16.060	28.326
17.001	30.921
18.001	29.097
19.001	30.197
20.001	27.297
21.001	30.397
22.001	29.497
23.001	28.397
24.001	28.897
25.001	30.997
26.002	28.197
27.002	30.097
28.002	29.997
29.002	29.897
30.001	29.627
31.063	29.187
32.059	28.712
33.062	30.705
34.001	32.265
35.001	27.397
36.002	30.697
37.002	30.997
38.002	27.897
39.002	31.097
40.002	30.497
41.002	30.897
42.002	32.497
43.063	29.498
44.002	28.751
45.060	27.812
46.003	31.068
47.063	28.676
48.002	27.793
49.002	30.597
50.002	30.897
51.002	29.497
52.002	29.597
53.002	27.897
54.002	30.197
55.060	28.285
56.003	30.750
57.003	29.597
58.011	29.957
59.096	27.923
60.003	31.970
61.061	28.636
62.003	28.872
63.060	30.461
64.003	30.538
65.002	29.026
66.003	30.097
67.003	29.097
68.064	30.251
69.111	25.403
70.003	22.531
71.068	20.655
72.073	20.296
73.065	21.873
74.003	21.000
75.003	20.998
76.062	20.130
77.004	19.531
78.067	22.293
79.004	9.177
80.065	5.937
81.063	9.919
82.003	12.339
83.003	15.898
84.003	17.598
85.003	19.398
86.004	22.198
87.004	24.298
88.004	24.698
89.065	22.052
90.004	24.598
91.004	21.398
92.004	24.198
93.004	23.798
94.004	21.398
95.004	23.198
96.005	24.198
97.005	24.598
98.005	23.998
99.005	23.098
100.004	23.721
101.062	24.856
102.004	22.503
103.004	25.597
104.004	26.097
105.004	23.598
106.005	25.097
107.068	25.397
108.107	24.733
109.005	25.053
110.013	26.386
111.005	24.494
112.005	26.797
113.005	26.997
114.067	26.363
115.005	27.716
116.006	26.797
117.005	26.924
118.005	26.597
119.005	26.797
120.005	27.797
121.005	25.497
122.005	26.497
123.065	26.507
124.005	25.423
125.005	27.997
126.006	27.897
127.006	24.398
128.006	26.897
129.006	26.697
130.062	25.944
131.011	29.396
132.063	24.902
133.006	29.796
134.065	25.682
135.005	30.529
136.006	29.297
137.006	25.897
138.006	28.797
139.006	27.897
140.066	25.375
141.062	27.909
142.006	30.929
143.069	27.655
144.006	27.425
145.006	27.897
146.007	29.097
147.079	28.635
148.007	28.876
149.007	30.197
150.007	8.399
