Time [s]	Current [nA]
0.000	23.791
1.000	57.494
2.000	54.195
3.000	59.094
4.001	58.735
5.000	52.447
6.001	61.994
7.001	56.894
8.057	51.794
9.001	63.129
10.063	54.232
11.001	55.112
12.001	62.094
13.001	53.095
14.083	60.345
15.000	52.994
16.001	57.594
17.060	58.351
18.001	55.786
19.001	59.194
20.001	59.394
21.001	52.495
22.001	56.694
23.001	61.794
24.102	53.037
25.001	60.283
26.002	58.694
27.002	52.595
28.002	56.694
29.002	61.894
30.059	51.650
31.058	59.754
32.001	55.138
33.001	57.694
34.001	56.994
35.001	56.994
36.002	59.194
37.002	59.394
38.002	52.495
39.002	56.894
40.002	61.994
41.002	54.495
42.002	58.894
43.002	57.494
44.002	52.695
45.002	56.494
46.003	61.794
47.065	56.586
48.003	57.137
49.003	52.595
50.002	56.551
51.002	61.594
52.002	54.295
53.086	53.777
54.064	59.605
55.002	55.325
56.003	56.394
57.003	56.294
58.003	59.094
59.003	58.694
60.003	52.295
61.059	58.043
62.003	59.528
63.003	53.395
64.003	57.994
65.003	53.895
66.004	56.794
67.003	56.050
68.003	56.194
69.064	60.597
70.003	56.650
71.003	52.095
72.003	56.194
73.063	57.636
74.003	54.463
75.003	58.894
76.004	58.794
77.004	52.195
78.004	56.294
79.053	57.954
80.004	55.515
81.004	59.594
82.004	51.595
83.004	57.194
84.004	55.994
85.003	56.351
86.004	58.494
87.004	58.794
88.113	33.450
