Time [s]	Current [nA]
0.000	46.945
0.999	54.555
1.999	59.200
2.999	59.000
3.999	57.200
4.999	57.500
5.999	59.200
6.999	54.300
7.999	59.300
8.999	58.100
9.999	57.300
10.999	57.200
11.999	54.900
12.999	59.800
13.999	58.100
15.057	54.348
15.999	61.040
17.003	59.363
18.084	55.042
19.056	55.453
19.998	61.359
20.998	57.700
21.998	57.700
22.998	55.000
24.052	56.357
24.998	62.051
25.998	57.600
26.998	57.200
27.998	58.700
28.998	54.100
29.998	60.600
31.059	54.760
31.998	61.768
33.060	54.237
34.062	60.279
34.998	57.906
36.058	54.717
36.997	61.448
37.997	57.300
38.997	57.500
39.997	55.100
40.997	59.900
41.997	58.100
42.997	57.600
44.059	54.143
45.057	60.220
45.997	56.915
46.997	58.200
47.997	57.800
49.055	54.159
49.997	60.828
50.997	54.700
51.997	59.100
52.996	58.759
53.996	57.100
54.996	57.100
55.996	58.900
56.996	54.000
57.996	59.100
58.996	57.300
59.996	56.800
60.996	57.200
61.996	54.400
62.996	59.400
63.996	57.600
64.996	57.300
65.996	57.400
66.996	55.000
67.996	57.800
68.996	54.500
69.996	57.500
70.995	56.957
71.995	56.800
72.995	59.200
73.995	59.000
74.995	52.900
75.995	56.700
76.995	56.700
78.076	60.130
78.995	56.366
79.995	54.100
81.056	58.812
81.995	54.633
82.995	57.100
83.995	59.300
84.995	59.100
85.995	53.000
86.995	26.800
