Time [s]	Current [nA]
0.000	17.674
1.000	58.506
2.000	58.506
3.000	52.805
4.000	56.706
4.999	55.906
5.999	56.306
7.061	60.270
7.999	56.082
8.999	52.805
9.999	56.006
11.057	57.945
11.998	56.754
12.998	57.206
13.998	53.105
14.997	56.906
15.997	56.106
16.997	56.406
17.997	58.306
18.997	58.006
20.057	54.628
20.997	54.367
21.997	56.906
22.997	56.706
23.997	58.906
24.997	53.205
25.996	56.806
26.996	56.206
27.996	56.306
28.995	58.064
30.058	55.603
30.995	55.822
31.995	56.906
32.995	56.306
33.995	56.906
34.995	59.406
35.994	53.005
37.004	61.194
37.994	52.126
38.994	56.606
39.994	58.706
41.053	55.624
41.994	54.947
42.994	57.906
43.994	56.806
44.994	56.206
45.992	58.464
46.992	58.506
47.992	53.405
48.992	56.906
49.992	57.006
51.050	55.488
52.060	58.422
52.992	56.551
53.992	57.406
54.992	56.706
55.991	56.706
57.053	59.987
57.991	56.615
58.991	53.205
59.991	56.106
60.991	56.606
62.045	56.173
62.991	60.154
63.990	54.360
64.990	57.306
65.989	56.706
66.989	56.606
67.989	58.406
68.989	53.405
69.989	57.206
70.989	56.006
71.989	56.406
72.989	56.506
73.989	58.306
74.989	58.606
75.988	52.705
76.988	55.906
77.988	56.806
78.988	58.006
80.046	54.542
80.987	55.797
81.987	56.006
82.987	56.206
84.087	56.187
84.987	59.339
85.986	53.305
86.986	57.006
87.986	55.706
88.986	16.102
