Time [s]	Current [nA]
0.000	1.590
1.000	49.595
2.000	52.095
3.000	47.295
4.058	47.821
5.001	52.543
6.062	46.838
7.001	53.030
8.001	47.995
9.001	51.095
10.001	43.196
11.001	16.498
12.001	23.098
13.001	34.597
14.061	42.637
15.000	44.085
16.059	47.065
17.001	52.012
18.001	49.395
19.001	51.195
20.001	47.495
21.001	49.995
22.001	49.095
23.055	46.864
24.001	54.434
25.001	46.495
26.002	51.295
27.059	47.015
28.002	51.957
29.002	49.495
30.002	51.195
31.001	47.243
32.001	50.095
33.001	49.195
34.001	49.495
35.060	48.388
36.087	49.752
37.002	50.596
38.002	50.295
39.002	49.095
40.002	49.495
41.002	51.595
42.002	47.195
43.002	50.895
44.002	49.295
45.002	49.395
46.003	51.095
47.003	46.495
48.003	51.495
49.002	50.145
50.002	49.895
51.002	49.795
52.002	47.395
53.002	51.895
54.002	50.395
55.002	49.495
56.003	49.695
57.003	50.195
58.063	49.523
59.003	50.420
60.003	50.395
61.061	46.971
62.003	52.861
63.059	48.859
64.003	50.631
65.003	50.395
66.066	48.112
67.061	50.849
68.061	50.095
69.003	50.207
70.003	52.395
71.003	46.295
72.063	51.787
73.003	47.655
74.003	51.395
75.066	48.583
76.004	48.716
77.004	49.895
78.004	49.295
79.004	49.595
80.004	51.395
81.004	47.695
82.065	51.079
83.004	47.919
84.003	49.645
85.003	51.495
86.004	50.295
87.004	51.395
88.004	45.795
89.056	51.041
90.004	47.358
91.004	51.295
92.004	51.295
93.066	47.735
94.004	47.863
95.004	49.295
96.079	52.695
97.005	47.619
98.005	46.795
99.067	50.937
100.060	48.938
101.004	47.559
102.004	51.195
103.049	31.002
