Time [s]	Current [nA]
0.000	22.244
0.999	44.540
1.999	44.096
2.999	44.296
3.999	45.695
5.061	44.199
6.000	43.553
7.000	44.396
8.000	44.596
9.000	45.295
10.000	42.096
11.000	46.295
12.000	45.095
13.000	44.496
14.000	44.796
15.000	42.296
16.063	48.300
17.001	44.025
18.058	42.096
19.000	47.447
20.000	44.696
21.000	43.296
22.000	46.495
23.000	45.096
24.058	42.340
25.000	47.766
26.001	42.496
27.001	46.895
28.001	45.595
29.001	45.595
30.059	42.907
31.062	45.858
32.001	45.789
33.059	44.041
34.001	44.475
35.001	44.896
36.001	45.241
37.001	46.295
38.002	46.649
39.001	41.938
40.001	45.095
41.061	46.316
42.001	43.081
43.001	46.495
44.001	46.595
45.001	41.696
46.002	44.896
47.002	44.796
48.002	45.895
49.002	45.295
50.002	41.996
51.002	45.095
52.002	44.296
53.001	45.241
54.001	46.395
55.001	45.995
56.002	41.396
57.002	44.596
58.002	44.496
59.002	45.195
60.002	45.995
61.002	42.696
62.002	44.596
63.002	44.396
64.002	44.396
65.056	43.870
66.059	46.456
67.003	43.428
68.063	45.844
69.065	44.407
70.003	42.959
71.002	46.642
72.063	43.916
73.002	43.553
74.002	44.396
75.002	44.496
76.003	46.395
77.003	42.196
78.003	44.896
79.003	45.096
80.064	45.707
81.003	42.701
82.003	46.095
83.063	44.052
84.003	43.081
85.003	44.396
86.004	44.496
87.066	47.170
88.003	44.713
89.090	41.578
90.003	45.340
91.003	44.995
92.003	45.395
93.063	43.769
94.003	44.570
95.003	45.395
96.004	44.196
97.062	41.962
98.004	48.509
99.004	41.296
100.004	46.595
101.004	44.696
102.004	44.496
103.004	44.496
104.004	45.795
105.004	42.496
106.062	43.042
107.062	44.596
108.004	47.235
109.004	45.795
110.085	42.086
111.004	46.132
112.092	23.527
