Time [s]	Current [nA]
0.000	25.025
1.000	49.695
2.000	46.295
3.000	49.495
4.056	46.113
5.056	48.544
6.001	48.778
7.001	49.495
8.001	50.295
9.000	44.740
10.000	42.696
11.000	42.296
12.000	41.096
13.000	44.596
14.000	43.996
15.056	41.133
16.001	46.345
17.001	40.596
18.001	44.996
19.001	45.795
20.058	40.677
21.001	46.019
22.001	43.396
23.001	41.896
24.001	46.495
25.064	42.369
26.001	46.634
27.001	44.196
28.001	43.996
29.001	41.796
30.001	45.595
31.001	45.295
32.057	42.420
33.001	47.982
34.001	42.496
35.001	46.095
36.002	45.895
37.067	41.968
38.067	44.696
39.063	45.377
40.059	46.883
41.002	44.958
42.002	46.095
43.002	45.295
44.057	42.839
45.001	49.783
46.002	43.696
47.002	45.995
48.002	45.995
49.002	45.595
50.002	45.895
51.002	43.396
52.002	47.995
53.002	46.195
54.002	45.595
55.061	43.285
56.060	47.643
57.003	46.019
58.003	47.895
59.003	46.995
60.003	46.795
61.061	44.230
62.007	51.369
63.002	44.719
64.002	47.695
65.002	46.895
66.003	47.095
67.003	48.995
68.003	43.296
69.003	48.995
70.061	44.419
71.060	47.142
72.003	50.260
73.003	45.495
74.003	49.595
75.003	48.295
76.062	44.797
77.062	47.495
78.004	52.012
79.003	44.340
80.003	50.195
81.003	48.295
82.003	44.696
83.003	47.695
84.003	49.495
85.003	49.795
86.004	44.496
87.004	47.695
88.004	47.595
89.107	47.865
90.062	47.325
91.011	51.944
92.004	44.406
93.004	47.795
94.004	48.095
95.004	49.995
96.004	49.945
97.004	44.696
98.004	48.595
99.004	48.095
100.004	47.995
101.004	50.395
102.004	49.995
103.004	44.396
104.004	48.095
105.064	49.853
106.066	50.294
107.005	43.446
108.005	23.598
