Time [s]	Current [nA]
0.000	24.152
1.000	53.995
2.057	51.367
3.000	53.971
4.000	54.994
5.058	52.502
6.063	53.626
7.001	57.031
8.001	53.795
9.001	50.895
10.056	52.696
11.001	57.878
12.062	50.325
13.000	57.137
14.000	50.395
15.000	54.395
16.058	52.975
17.001	57.258
18.001	53.495
19.062	50.608
20.001	54.840
21.001	55.694
22.063	51.031
23.001	57.137
24.001	53.595
25.001	54.595
26.063	52.210
27.002	53.243
28.002	54.595
29.001	53.648
30.058	50.515
31.001	53.759
32.001	56.094
33.001	54.795
34.001	53.495
35.064	50.466
36.002	57.350
37.002	51.095
38.002	55.994
39.002	54.095
40.002	53.395
41.002	53.695
42.002	55.094
43.002	51.195
44.002	54.095
45.002	53.995
46.013	52.965
47.002	54.292
48.002	50.395
49.002	55.694
50.002	54.695
51.002	53.595
52.002	53.595
53.002	50.795
54.002	55.294
55.002	55.394
56.003	54.395
57.003	53.895
58.003	53.695
59.003	52.195
60.003	55.894
61.003	50.295
62.003	53.695
63.003	53.395
64.002	55.650
65.002	53.995
66.065	52.914
67.003	51.914
68.003	52.995
69.003	53.795
70.003	55.095
71.003	51.395
72.003	54.495
73.003	53.395
74.003	53.595
75.102	54.548
76.004	54.762
77.004	54.994
78.064	51.599
79.004	51.165
80.004	53.295
81.004	55.095
82.068	52.438
83.003	53.043
84.003	53.495
85.003	53.195
86.004	53.295
87.004	55.694
88.004	50.595
89.068	55.352
90.004	51.277
91.065	55.131
92.069	54.875
93.004	48.658
94.004	0.600
