Time [s]	Current [nA]
0.000	12.334
1.000	60.494
2.000	60.794
3.000	60.194
4.000	62.094
5.000	56.394
6.001	62.294
7.001	60.394
8.063	56.209
9.001	63.853
10.001	56.994
11.001	62.294
12.059	56.800
13.001	63.794
14.001	59.194
15.000	56.451
16.001	60.194
17.001	57.694
18.001	60.394
19.001	59.294
20.001	59.794
21.001	61.994
22.001	56.894
23.066	61.402
24.001	57.427
25.001	59.694
26.002	59.494
27.002	62.294
28.002	56.994
29.068	61.532
30.002	57.596
31.068	61.438
32.062	56.634
33.001	60.484
34.001	58.794
35.001	59.994
36.002	59.094
37.002	59.294
38.002	62.394
39.002	56.194
40.002	59.894
41.002	59.394
42.002	59.594
43.002	61.694
44.009	61.861
45.002	55.080
46.003	60.194
47.003	59.494
48.003	59.094
49.003	61.894
50.002	57.051
51.002	59.894
52.002	59.494
53.002	59.594
54.002	62.094
55.002	60.494
56.003	56.794
57.003	60.694
58.003	59.194
59.003	59.394
60.003	56.794
61.003	61.994
62.003	59.794
63.003	59.194
64.003	59.594
65.003	54.695
66.004	62.394
67.003	61.255
68.003	54.895
69.003	59.794
70.003	59.594
71.003	61.694
72.003	56.094
73.003	60.394
74.003	59.794
75.070	62.095
76.004	57.275
77.004	61.194
78.004	56.094
79.004	60.894
80.004	59.094
81.004	59.194
82.004	55.594
83.004	61.894
84.262	43.080
