Time [s]	Current [nA]
0.000	45.348
0.935	48.658
1.999	52.344
3.016	49.454
3.935	53.205
4.944	52.126
5.936	47.523
6.997	52.398
7.991	52.812
8.935	52.855
9.935	54.195
10.935	47.695
11.935	53.795
12.935	52.795
13.935	52.595
14.989	52.177
15.936	53.589
16.936	53.695
17.995	54.480
18.936	50.898
19.936	54.795
20.938	55.084
21.936	50.095
22.997	55.697
23.936	51.539
24.935	53.448
25.985	53.760
26.936	58.354
27.936	50.695
28.997	55.320
29.936	52.391
30.936	56.094
31.936	55.294
32.936	51.995
33.936	54.495
34.936	54.295
35.937	54.295
36.937	56.194
37.937	56.694
38.937	50.695
39.937	54.895
40.937	54.795
41.936	55.650
42.936	56.794
43.936	52.195
44.936	55.294
45.997	56.315
46.937	52.867
47.937	57.394
48.937	57.094
49.937	50.995
50.937	54.895
51.937	55.294
52.937	54.994
53.937	41.096
54.937	15.598
55.938	27.097
56.938	38.296
57.938	46.895
58.938	51.595
59.994	54.540
60.937	53.865
61.937	56.194
62.999	57.245
63.997	55.806
64.937	55.845
65.938	57.894
66.938	50.795
67.938	55.194
68.938	55.494
69.938	57.694
70.938	57.694
71.938	51.495
72.938	55.994
73.938	55.294
74.938	55.494
75.991	54.747
76.993	57.380
77.938	54.598
78.938	55.194
79.938	55.494
80.938	57.794
81.938	56.694
82.938	52.995
83.938	56.394
84.999	57.581
85.939	54.095
86.939	58.194
87.939	57.794
88.939	51.895
89.939	55.794
90.939	56.094
91.939	56.394
92.997	55.287
93.939	6.475
