Time [s]	Current [nA]
0.000	39.196
1.068	56.081
2.000	53.965
3.000	56.194
4.000	55.794
5.059	52.641
6.001	61.883
7.001	53.395
8.001	56.694
9.001	56.194
10.000	56.050
11.000	57.894
12.000	51.295
13.000	58.394
14.000	56.494
15.000	55.394
16.001	55.394
17.001	57.494
18.066	55.206
19.001	55.075
20.001	55.494
21.001	55.694
22.001	57.594
23.001	50.995
24.001	57.794
25.060	52.547
26.059	54.949
27.001	59.124
28.058	54.110
29.001	55.986
30.001	56.394
31.001	55.294
32.001	55.394
33.001	55.694
34.001	52.795
35.001	57.794
36.002	55.794
37.002	55.394
38.002	55.194
39.056	54.264
40.002	55.808
41.002	56.394
42.002	56.194
43.002	55.094
44.002	55.094
45.062	54.291
46.002	56.058
47.002	55.694
48.002	55.294
49.055	52.796
50.002	60.501
51.002	52.895
52.002	56.294
53.002	56.394
54.002	55.194
55.059	51.983
56.003	61.117
57.003	52.595
58.003	56.294
59.003	55.294
60.003	55.694
61.003	57.494
62.002	51.346
63.002	57.294
64.002	55.894
65.002	55.494
66.003	55.494
67.003	56.794
68.003	53.295
69.057	53.126
70.003	58.874
71.003	55.894
72.005	57.479
73.003	51.197
74.003	58.394
75.003	55.994
76.004	55.394
77.004	55.594
78.004	57.894
79.004	53.095
80.003	56.151
81.003	55.294
82.003	54.994
83.003	55.594
84.003	52.395
85.003	57.994
86.004	56.294
87.004	55.294
88.004	55.494
89.004	57.394
90.057	15.478
