Time [s]	Current [nA]
0.000	7.196
1.000	40.196
2.000	43.496
3.000	41.396
4.000	38.496
5.000	35.996
6.062	37.320
7.001	36.738
8.001	38.496
9.061	34.902
10.001	35.528
11.056	37.911
12.001	35.975
13.000	40.136
14.054	36.808
15.060	37.310
16.001	35.384
17.001	37.296
18.001	39.396
19.001	39.496
20.078	36.115
21.001	38.241
22.001	38.396
23.001	38.996
24.001	39.896
25.001	40.796
26.002	35.696
27.002	38.296
28.002	39.096
29.002	40.596
30.002	41.296
31.001	39.936
32.001	36.596
33.001	43.496
34.001	36.396
35.001	42.096
36.002	42.096
37.002	37.296
38.064	31.541
39.002	9.061
40.002	15.098
41.002	24.598
42.006	33.264
43.002	32.426
44.002	39.996
45.002	41.896
46.003	43.796
47.003	44.496
48.002	39.335
49.002	42.196
50.060	43.096
51.002	42.459
52.002	42.696
53.002	39.996
54.002	42.496
55.002	41.896
56.003	41.996
57.003	44.196
58.061	41.489
59.003	41.716
60.059	43.840
61.003	45.017
62.003	39.296
63.003	43.996
64.003	44.696
65.064	41.128
66.003	41.742
67.065	44.252
68.003	43.492
69.003	44.196
70.003	39.296
71.003	42.996
72.003	46.795
73.003	39.396
74.003	45.895
75.003	40.696
76.004	42.896
77.004	42.596
78.004	42.596
79.004	43.896
80.004	44.396
81.004	39.196
82.004	43.096
83.003	42.538
84.003	42.496
85.003	44.396
86.004	44.896
87.004	39.796
88.004	42.496
89.004	42.696
90.004	44.396
91.004	44.396
92.004	43.196
93.004	39.296
94.004	42.696
95.004	46.895
96.005	41.296
97.005	45.395
98.065	41.411
99.005	41.804
100.005	46.795
101.004	40.837
102.004	43.796
103.004	41.096
104.004	43.496
105.004	43.096
106.005	43.296
107.005	44.896
108.005	45.195
109.005	39.996
110.005	43.396
111.005	43.096
112.005	43.396
113.005	45.095
114.005	40.996
115.005	43.496
116.006	46.695
117.006	39.196
118.005	44.940
119.005	44.396
120.005	39.096
121.005	42.396
122.063	43.568
123.005	41.503
