Time [s]	Current [nA]
0.000	8.076
1.061	46.555
2.007	52.849
3.004	44.429
4.000	49.091
5.061	49.712
6.001	45.953
7.063	47.170
8.006	53.017
9.061	45.967
10.003	44.900
11.000	47.638
12.002	49.296
13.005	48.948
14.003	43.583
15.001	48.741
16.001	47.695
17.001	47.595
18.064	46.091
19.002	48.609
20.001	47.843
21.001	47.395
22.001	48.095
23.005	49.497
24.004	48.444
25.011	48.405
26.001	43.935
27.001	47.195
28.062	48.817
29.064	44.307
30.012	52.104
31.001	44.283
32.001	46.995
33.001	47.295
34.007	48.007
35.002	48.888
36.002	45.195
37.002	47.395
38.002	46.695
39.064	48.489
40.003	46.854
41.013	49.005
42.002	44.081
43.062	48.769
44.065	46.755
45.006	45.846
46.061	46.915
47.069	49.102
48.063	48.888
49.006	45.064
50.002	47.385
51.005	48.649
52.013	48.805
53.005	43.645
54.002	47.939
55.003	46.995
56.003	46.895
57.003	49.295
58.010	48.655
59.003	44.306
60.003	47.095
61.064	49.005
62.005	47.498
63.075	46.444
64.090	47.384
65.002	43.636
66.003	41.096
67.069	41.272
68.003	40.895
69.003	37.996
70.003	40.996
71.003	39.896
72.068	41.123
73.003	41.172
74.004	41.754
75.003	38.635
76.004	41.396
77.004	41.796
78.003	41.137
79.005	42.910
80.012	43.888
81.003	39.653
82.006	41.870
83.005	42.138
84.010	42.384
85.003	43.702
86.067	41.670
87.004	42.578
88.074	43.547
89.004	42.576
90.007	45.459
91.009	46.003
92.004	41.403
93.004	44.196
94.065	45.142
95.008	42.459
96.004	46.983
97.012	45.134
98.004	41.528
99.004	44.896
100.068	46.800
101.005	46.100
102.006	46.149
103.090	41.601
104.004	45.291
105.004	44.596
106.005	44.596
107.005	46.595
108.071	43.898
109.005	44.856
110.112	23.033
