Time [s]	Current [nA]
0.000	15.810
0.991	57.007
1.928	59.546
2.984	52.362
3.928	55.503
4.981	55.265
5.928	58.451
6.928	55.094
7.985	52.313
8.928	55.774
9.928	55.894
10.928	56.594
11.928	55.794
12.928	55.294
13.928	55.294
14.928	52.395
15.929	57.394
16.986	52.313
17.929	57.258
18.929	54.595
19.929	55.694
20.929	50.095
21.985	54.445
22.987	54.486
23.928	57.167
24.928	53.995
25.929	51.995
26.929	56.494
27.929	56.094
28.986	52.029
29.929	57.788
30.929	54.695
31.929	50.595
32.929	60.494
33.929	61.594
34.929	60.894
35.930	61.294
36.930	58.194
37.930	63.094
38.930	61.594
39.930	60.594
40.929	60.555
41.929	60.894
42.989	60.371
43.929	61.483
44.929	61.494
45.930	60.994
46.930	60.794
47.930	57.694
48.992	64.400
49.930	57.457
50.930	60.794
51.930	60.194
52.930	60.294
53.930	56.594
54.930	62.394
55.989	56.516
56.931	63.263
57.931	59.494
58.930	56.551
59.930	61.594
60.930	59.994
61.930	59.994
62.988	55.666
63.930	63.369
64.930	56.794
65.931	61.894
66.931	59.894
67.990	56.085
68.931	62.162
69.931	55.794
70.931	58.594
71.931	60.794
72.931	58.394
73.931	57.994
74.931	58.694
75.931	54.849
76.931	60.194
77.931	59.294
78.989	54.437
79.931	61.565
80.936	59.596
81.931	53.161
82.931	59.594
83.931	57.594
84.931	56.494
85.991	53.064
86.985	27.160
