Time [s]	Current [nA]
0.000	40.196
1.093	28.451
2.000	36.601
3.061	54.283
4.000	56.757
5.000	60.494
6.000	64.458
7.000	64.394
8.061	58.901
9.000	59.419
10.000	62.094
11.000	61.994
12.000	63.494
13.001	64.329
14.000	56.851
15.000	61.294
16.001	60.394
17.064	65.469
18.001	61.146
19.001	55.894
20.003	66.460
21.001	56.107
22.084	61.397
23.001	63.243
24.060	58.823
25.000	59.356
26.001	60.094
27.056	62.363
28.001	60.735
29.001	63.394
30.001	55.594
31.001	61.594
32.001	60.494
33.064	62.741
34.002	59.696
35.001	56.451
36.002	59.694
37.002	58.694
38.064	60.634
39.060	56.019
40.069	62.333
41.001	56.754
42.057	55.013
43.001	61.540
44.063	60.728
45.001	58.523
46.063	58.053
47.002	56.011
48.002	58.094
49.064	59.599
50.002	57.990
51.002	53.495
52.002	60.094
53.002	58.294
54.002	57.694
55.059	54.729
56.003	58.681
57.065	61.670
58.003	55.645
59.002	56.851
60.002	57.094
61.002	57.994
62.003	58.735
63.064	56.356
64.002	54.472
65.002	56.094
66.003	56.894
67.004	59.135
68.065	55.885
69.058	51.354
70.003	59.571
71.003	56.294
72.003	56.994
73.064	56.922
74.003	56.757
75.003	56.894
76.003	55.750
77.061	52.830
78.003	61.777
79.065	55.832
80.003	54.472
81.066	53.522
82.003	59.653
83.003	56.094
84.003	57.594
85.003	52.895
86.121	28.824
