Time [s]	Current [nA]
0.000	15.431
1.000	53.295
2.000	58.694
3.000	55.794
4.060	53.108
5.001	59.781
6.000	53.248
7.000	58.494
8.000	50.595
9.000	54.895
10.000	54.695
11.055	53.265
12.000	58.936
13.000	53.395
14.065	57.271
15.001	53.578
16.066	56.896
17.001	54.754
18.001	51.795
19.001	55.994
20.067	57.593
21.001	53.849
22.001	56.294
23.001	55.794
24.000	52.447
25.001	56.294
26.059	51.980
27.001	58.062
28.001	51.895
29.001	56.794
30.056	52.033
31.061	54.024
32.001	57.547
33.084	50.687
34.001	57.028
35.002	57.394
36.002	54.095
37.002	55.294
38.002	55.894
39.002	53.295
40.002	58.594
41.001	56.251
42.061	52.919
43.001	52.654
44.001	59.494
45.002	52.295
46.002	57.594
47.002	50.395
48.002	58.494
49.059	51.840
50.002	54.926
51.002	56.894
52.068	51.402
53.002	54.063
54.068	57.030
55.003	52.671
56.003	57.594
57.003	52.095
58.003	54.595
59.002	54.949
60.002	55.194
61.002	57.994
62.002	50.395
63.002	57.294
64.002	55.494
65.061	51.413
66.062	54.340
67.003	54.936
68.003	57.094
69.057	52.556
70.003	57.922
71.003	53.895
72.003	56.694
73.003	50.495
74.003	56.694
75.003	56.294
76.003	55.150
77.003	54.495
78.003	51.795
79.064	58.618
80.003	53.136
81.003	53.995
82.003	53.695
83.003	53.795
84.003	51.595
85.060	53.214
86.004	59.740
87.004	55.094
88.004	54.595
89.004	52.095
90.004	57.594
91.004	50.895
92.004	0.500
