Time [s]	Current [nA]
0.000	8.852
0.945	62.639
1.945	55.794
3.006	60.032
3.944	55.325
4.944	56.794
5.945	59.494
6.945	59.694
7.945	52.895
8.945	56.594
9.945	56.694
10.945	56.594
11.945	59.094
13.001	55.866
13.945	54.444
15.003	57.421
15.946	54.289
16.946	58.694
17.946	58.894
18.955	56.288
19.945	52.217
20.945	55.694
21.945	55.794
22.945	57.594
23.951	57.151
24.945	52.107
25.946	55.494
26.946	55.594
27.946	57.194
28.946	56.994
29.946	50.495
30.946	56.194
31.946	55.094
32.946	54.795
33.946	57.194
35.012	54.079
35.947	52.508
36.947	54.595
38.003	51.037
38.946	59.273
39.946	49.595
40.946	55.694
41.946	54.095
42.946	53.195
43.946	54.395
44.951	55.815
45.947	51.352
46.947	53.595
47.947	53.095
48.947	52.495
49.947	53.995
50.947	48.395
51.947	49.095
52.947	27.097
53.947	36.496
54.946	46.442
55.947	54.395
56.947	51.195
57.947	54.395
58.947	50.795
60.005	48.199
60.947	55.727
61.947	48.695
62.947	53.395
63.947	52.095
64.947	51.395
65.948	51.495
66.948	53.295
67.948	47.695
68.948	51.895
69.948	50.695
70.948	50.995
71.948	50.995
72.947	49.344
73.947	52.995
74.947	50.895
75.948	50.395
76.948	50.095
77.948	52.595
78.948	47.895
79.948	51.295
80.948	51.695
82.007	48.532
82.948	50.261
84.006	50.562
85.002	53.107
85.949	49.255
86.949	50.895
87.949	51.095
88.949	52.095
89.948	51.947
91.019	47.428
91.948	50.587
92.948	50.395
93.948	49.995
95.007	24.266
