Time [s]	Current [nA]
0.000	20.878
1.000	41.696
2.003	43.066
3.062	40.695
4.082	41.368
5.063	38.159
6.001	43.599
7.001	40.796
8.006	41.986
9.064	37.142
10.001	43.752
11.002	40.455
12.055	38.363
13.062	40.810
14.073	42.033
15.066	36.891
16.001	44.060
17.001	43.896
18.062	43.351
19.012	51.574
20.002	45.147
21.001	46.942
22.001	46.295
23.001	46.495
24.004	48.151
25.006	42.453
26.002	49.292
27.002	46.595
28.002	46.095
29.058	43.935
30.005	46.247
31.067	49.807
32.001	44.749
33.005	45.314
34.001	46.381
35.003	46.948
36.068	44.221
37.063	43.413
38.002	49.303
39.002	45.095
40.002	45.295
41.002	42.796
42.004	46.802
43.004	46.295
44.002	44.885
45.068	42.531
46.002	48.175
47.002	42.696
48.004	46.403
49.002	45.386
50.002	43.796
51.061	41.167
52.004	48.245
53.005	41.654
54.008	43.964
55.002	44.563
56.003	42.896
57.063	41.222
58.008	48.778
59.071	43.363
60.061	39.592
61.003	46.174
62.064	40.901
63.063	45.041
64.007	43.428
65.065	42.474
66.003	46.797
67.003	42.796
68.007	42.526
69.008	44.851
70.072	43.323
71.061	39.632
72.061	42.796
73.003	46.068
74.006	43.665
75.095	39.886
76.005	43.073
77.004	43.039
78.004	41.696
79.004	41.996
80.077	41.468
81.065	40.279
82.003	45.091
83.061	38.843
84.065	40.733
85.010	44.805
86.004	38.628
87.004	42.496
88.004	41.496
89.068	38.436
90.004	42.944
91.070	38.083
92.007	39.804
93.062	38.006
94.063	38.957
95.007	42.792
96.113	41.534
97.066	38.506
98.064	38.173
99.063	41.337
100.004	42.397
101.064	37.638
102.004	44.570
103.067	40.636
104.006	39.719
105.004	40.777
106.069	37.966
107.005	43.158
108.068	38.472
109.007	40.252
110.005	40.577
111.005	39.896
112.005	40.496
113.005	37.896
114.008	18.343
115.006	22.242
116.005	31.259
117.068	33.487
118.073	35.618
