Time [s]	Current [nA]
0.000	23.055
1.000	48.795
2.000	48.495
3.089	44.165
4.000	49.721
5.001	49.895
6.000	47.943
7.000	47.195
8.056	44.408
9.000	51.796
10.000	44.196
11.000	47.095
12.000	47.495
13.000	47.495
14.000	47.795
15.000	45.096
16.001	48.995
17.001	47.795
18.001	47.295
19.001	47.295
20.060	46.265
21.001	47.710
22.001	48.795
23.001	48.395
24.000	47.343
25.000	25.297
26.001	19.798
27.001	32.197
28.001	38.996
29.001	43.696
30.001	44.496
31.001	48.395
32.001	44.196
33.001	49.895
34.001	47.295
35.001	46.995
36.059	44.272
37.002	46.867
38.002	48.795
39.002	47.795
40.002	47.295
41.052	45.234
42.001	51.312
43.001	42.596
44.001	48.695
45.001	46.695
46.002	46.395
47.002	45.795
48.002	47.995
49.002	43.996
50.002	47.495
51.002	47.195
52.002	46.195
53.002	46.495
54.002	43.996
55.002	47.595
56.060	43.799
57.003	49.306
58.003	46.095
59.002	46.942
60.002	43.196
61.002	46.995
62.002	47.395
63.068	44.461
64.002	50.637
65.002	44.396
66.003	49.695
67.003	47.095
68.003	46.795
69.058	44.451
70.003	49.942
71.003	44.396
72.003	47.695
73.003	47.495
74.003	47.095
75.003	47.495
76.003	44.340
77.003	49.195
78.003	48.295
79.061	44.041
80.003	50.420
81.003	49.995
82.003	44.396
83.003	48.895
84.003	48.095
85.003	47.695
86.061	44.839
87.004	51.957
88.004	44.995
89.004	46.995
90.004	47.495
91.004	46.995
92.070	46.055
93.004	46.355
94.003	49.044
95.003	46.095
96.062	43.379
97.004	48.934
98.004	45.095
99.004	48.495
100.004	47.195
101.004	45.495
102.061	43.326
103.004	49.942
104.004	44.996
105.063	46.026
106.005	51.269
107.005	46.495
108.066	28.272
