Time [s]	Current [nA]
0.000	17.664
1.059	24.077
2.003	22.455
3.019	31.296
4.000	37.407
5.006	43.976
6.001	41.101
7.013	49.699
8.001	42.607
9.001	48.895
10.005	48.501
11.014	47.270
12.000	43.606
13.061	47.780
14.009	49.362
15.051	42.359
16.059	48.309
17.001	45.643
18.001	46.795
19.009	51.285
20.001	45.862
21.074	45.103
22.065	48.128
23.012	50.259
24.069	45.029
25.010	50.314
26.002	45.762
27.007	48.950
28.002	43.815
29.001	47.443
30.063	48.394
31.001	48.396
32.086	44.788
33.070	50.808
34.061	48.229
35.001	45.102
36.061	48.720
37.002	46.860
38.066	45.484
39.072	47.113
40.062	48.682
41.002	45.527
42.092	48.252
43.002	47.358
44.065	45.809
45.014	49.995
46.002	44.226
47.002	46.495
48.058	46.207
49.060	48.698
50.014	49.785
51.013	46.542
52.076	43.740
53.089	46.590
54.002	48.626
55.002	44.596
56.063	48.486
57.012	48.257
58.060	45.224
59.059	44.240
60.061	49.097
61.015	49.576
62.064	45.467
63.003	44.617
64.068	47.695
65.002	48.282
66.004	48.347
67.063	44.188
68.012	48.467
69.014	47.400
70.058	42.620
71.079	46.910
72.065	47.764
73.003	45.198
74.012	48.954
75.017	45.912
76.004	44.879
77.063	45.321
78.004	45.904
79.004	46.995
80.073	47.610
81.061	45.340
82.003	49.146
83.016	47.281
84.068	45.053
85.017	47.886
86.066	44.514
87.062	43.670
88.064	48.299
89.023	48.483
90.004	43.523
91.017	49.847
92.004	44.170
93.058	46.200
94.062	48.700
95.019	49.786
96.075	44.503
97.073	46.989
98.062	45.496
99.004	51.906
100.072	44.284
101.017	49.519
102.004	43.562
103.090	46.680
104.004	48.901
105.010	47.709
106.020	46.873
107.081	44.859
108.066	48.625
109.005	0.639
