Time [s]	Current [nA]
0.000	22.482
0.944	51.902
1.943	49.645
2.943	45.695
4.005	46.229
4.943	51.168
5.944	47.995
6.944	44.296
7.944	48.595
8.944	50.195
9.944	47.695
10.944	47.195
11.944	46.795
12.944	44.296
13.944	49.095
14.944	48.795
15.945	47.995
16.945	46.995
17.946	46.649
18.945	44.240
19.944	49.244
21.006	44.534
21.944	50.315
22.944	48.195
24.004	47.354
24.999	45.523
26.002	48.398
26.945	51.214
27.945	47.695
28.945	47.795
30.006	48.346
31.000	45.166
31.945	45.498
32.945	46.495
33.945	46.595
34.945	48.595
36.008	46.794
36.945	45.673
38.011	49.245
38.945	45.820
39.945	48.495
40.945	49.095
41.945	43.896
42.945	48.195
43.945	47.595
44.945	46.295
45.946	43.496
46.946	46.095
47.946	48.195
48.946	46.995
50.008	43.498
50.946	49.142
51.953	47.364
52.946	44.306
53.946	47.195
55.008	43.916
55.946	48.822
56.946	42.196
57.946	46.995
58.946	48.795
60.007	44.011
61.008	47.148
61.946	50.421
62.946	44.696
63.946	48.395
64.946	48.295
65.947	47.295
66.947	46.795
67.947	46.795
68.947	44.396
69.947	48.695
70.947	46.895
71.946	47.042
72.946	46.795
73.946	44.496
75.000	46.485
75.947	49.149
76.947	47.495
77.947	46.695
78.947	46.895
80.008	46.178
80.947	47.173
81.947	47.295
82.947	46.895
83.947	46.995
84.947	44.496
85.948	49.295
86.948	47.395
87.948	47.495
89.010	43.875
89.947	50.155
90.947	45.095
91.947	49.795
92.947	43.696
93.947	47.395
94.947	47.495
95.948	48.395
96.948	47.695
98.009	45.613
98.948	45.256
99.948	46.095
100.948	47.295
102.010	45.758
102.948	47.543
104.013	49.760
104.948	45.985
106.058	36.426
