Time [s]	Current [nA]
0.000	0.369
1.000	47.295
2.000	44.796
3.000	47.395
4.000	47.695
5.000	45.695
6.001	46.295
7.001	44.296
8.001	46.495
9.000	48.644
10.000	47.095
11.000	46.595
12.065	48.728
13.058	45.111
14.000	46.704
15.000	47.295
16.063	44.063
17.001	49.142
18.001	46.995
19.001	43.196
20.001	48.495
21.001	46.695
22.001	46.895
23.001	47.795
24.058	46.448
25.001	47.397
26.059	44.934
27.056	47.538
28.060	46.908
29.001	50.579
30.001	46.195
31.001	49.295
32.001	48.695
33.001	47.595
34.058	45.123
35.001	51.745
36.064	46.888
37.002	45.305
38.002	47.695
39.002	46.995
40.002	47.095
41.002	48.595
42.002	45.095
43.001	48.444
44.001	47.295
45.001	47.195
46.061	45.038
47.002	46.010
48.002	48.595
49.002	47.895
50.059	43.799
51.002	49.836
52.003	49.346
53.002	45.641
54.002	48.595
55.002	47.195
56.003	46.595
57.003	48.695
58.080	44.842
59.003	47.341
60.003	47.295
61.056	44.155
62.002	49.572
63.002	48.795
64.002	44.296
65.002	47.395
66.058	43.882
67.059	46.349
68.003	49.677
69.063	44.807
70.003	47.442
71.056	44.725
72.003	49.625
73.059	28.027
74.003	21.290
75.003	28.297
76.060	35.981
77.060	42.996
78.003	47.079
79.003	48.095
80.003	44.796
81.003	48.395
82.003	46.895
83.003	45.795
84.059	44.882
85.003	52.325
86.004	45.195
87.004	47.895
88.004	47.295
89.004	46.195
90.004	46.095
91.004	44.896
92.004	49.595
93.004	47.095
94.004	46.595
95.004	46.495
96.004	47.943
97.004	44.096
98.004	48.795
99.004	47.895
100.004	47.395
101.004	46.595
102.004	48.995
103.004	44.796
104.004	47.395
105.004	46.995
106.061	45.071
107.005	47.347
108.005	47.895
109.058	10.920
