Time [s]	Current [nA]
0.000	39.196
1.000	52.495
2.000	54.095
3.000	52.695
4.000	47.995
5.062	52.869
6.001	49.729
7.001	52.795
8.001	47.295
9.001	51.095
10.001	50.295
11.001	50.795
12.066	52.389
13.000	51.387
14.000	49.095
15.063	53.008
16.001	49.462
17.001	51.195
18.001	52.595
19.001	46.295
20.001	53.495
21.001	51.695
22.001	50.795
23.001	50.595
24.001	48.095
25.002	52.995
26.002	51.695
27.002	51.495
28.002	50.895
29.002	45.695
30.062	55.089
31.001	51.007
32.001	46.795
33.001	50.695
34.063	53.196
35.002	50.528
36.002	51.895
37.066	49.243
38.002	49.568
39.002	51.495
40.002	50.895
41.002	52.795
42.002	47.795
43.002	50.295
44.002	50.495
45.003	49.695
46.003	52.695
47.065	50.748
48.002	49.408
49.002	51.995
50.002	51.395
51.002	51.195
52.002	48.495
53.002	52.795
54.053	48.806
55.055	51.044
56.057	51.292
57.003	55.280
58.003	46.795
59.070	52.947
60.065	46.829
61.064	51.246
62.003	54.840
63.067	50.747
64.003	51.918
65.065	48.723
66.062	50.847
67.062	51.895
68.058	49.091
69.103	55.593
70.062	48.170
71.003	50.048
72.068	52.577
73.003	48.765
74.064	49.948
75.068	52.238
76.004	49.247
77.004	50.695
78.062	48.483
79.004	55.408
80.004	46.795
81.004	52.195
82.004	50.695
83.003	50.145
84.003	49.895
85.003	47.395
86.004	52.095
87.004	50.795
88.004	50.895
89.004	50.495
90.004	51.095
91.004	47.795
92.066	49.807
93.058	51.205
94.004	52.109
95.004	50.295
96.005	48.795
97.005	51.695
98.301	32.018
