Time [s]	Current [nA]
0.000	38.596
1.000	46.395
2.000	41.396
3.000	47.795
4.000	46.895
5.000	41.496
6.001	44.995
7.001	45.395
8.001	46.695
9.001	47.995
10.062	44.765
11.000	44.985
12.061	47.026
13.061	46.095
14.000	46.215
15.000	48.395
16.058	44.934
17.001	43.686
18.001	50.195
19.001	44.596
20.001	49.195
21.006	47.259
22.063	45.123
23.001	44.985
24.001	46.395
25.001	48.895
26.002	48.995
27.002	42.696
28.001	45.341
29.001	49.695
30.001	43.996
31.001	48.795
32.001	44.196
33.001	47.595
34.001	51.395
35.058	44.692
36.002	47.453
37.002	48.595
38.002	42.996
39.002	46.395
40.055	47.099
41.065	47.421
42.002	28.065
43.067	19.153
44.002	29.088
45.002	36.196
46.002	42.238
47.002	45.395
48.002	48.295
49.064	45.382
50.002	45.944
51.002	47.995
52.002	47.495
53.002	49.495
54.061	47.493
55.065	47.951
56.003	44.772
57.003	51.095
58.065	46.135
59.003	46.051
60.068	43.751
61.003	44.488
62.003	45.895
63.002	46.442
64.002	48.995
65.002	48.995
66.003	42.196
67.003	50.095
68.003	42.096
69.003	47.795
70.065	45.758
71.003	49.249
72.003	46.595
73.003	45.495
74.003	45.995
75.003	43.796
76.004	48.295
77.004	42.896
78.058	46.390
79.061	45.260
80.004	45.807
81.003	46.942
82.003	46.795
83.003	42.096
84.003	46.195
85.003	45.795
86.004	47.395
87.004	47.395
88.004	42.096
89.004	45.895
90.004	49.195
91.004	42.896
92.004	46.195
93.004	43.896
94.004	46.295
95.004	46.395
96.005	50.895
97.005	43.896
98.005	48.395
99.004	42.939
100.004	46.295
101.004	50.395
102.004	42.496
103.004	48.895
104.004	48.695
105.004	42.896
106.059	47.623
107.005	48.304
108.005	43.896
109.068	37.155
