Time [s]	Current [nA]
0.000	0.641
1.000	44.596
2.000	46.195
3.000	46.095
4.000	46.395
5.001	46.395
6.001	43.796
7.001	48.895
8.001	46.795
9.000	46.342
10.058	44.324
11.000	47.129
12.056	46.397
13.000	49.465
14.000	43.496
15.001	47.195
16.061	48.674
17.001	47.868
18.058	46.164
19.001	45.595
20.001	46.795
21.001	46.995
22.063	49.995
23.001	46.264
24.001	48.195
25.002	43.796
26.001	47.042
27.001	46.395
28.001	48.695
29.001	44.796
30.001	47.495
31.001	47.295
32.001	45.895
33.082	49.394
34.001	45.915
35.001	49.095
36.002	43.596
37.002	46.595
38.002	46.295
39.002	48.695
40.002	44.796
41.002	47.195
42.002	46.295
43.061	47.398
44.090	44.213
45.001	48.074
46.002	48.295
47.013	46.385
48.002	42.968
49.002	46.795
50.002	48.995
51.002	44.396
52.002	47.695
53.002	47.695
54.002	47.495
55.002	46.795
56.003	48.795
57.003	44.396
58.062	44.377
59.003	49.517
60.003	46.295
61.002	48.844
62.002	43.296
63.002	47.695
64.064	45.287
65.065	47.095
66.062	46.635
67.003	47.498
68.003	48.795
69.003	43.496
70.003	46.295
71.003	47.195
72.003	49.095
73.105	48.543
74.003	47.211
75.070	45.868
76.004	45.070
77.004	46.695
78.004	48.595
79.066	45.852
80.061	42.307
81.003	49.995
82.003	46.795
83.003	48.095
84.003	44.096
85.003	49.295
86.004	47.195
87.059	43.977
88.004	49.519
89.004	44.696
90.063	46.077
91.063	47.795
92.054	47.523
93.004	44.732
94.004	46.395
95.004	49.495
96.004	48.844
97.004	43.596
98.004	50.895
99.004	46.795
100.004	44.296
101.004	49.195
102.004	44.196
103.004	48.195
104.004	47.895
105.004	48.095
106.005	49.695
107.005	44.596
108.005	0.400
