Time [s]	Current [nA]
0.000	16.878
1.000	48.795
2.000	48.695
3.000	50.495
3.999	50.546
4.999	44.396
6.059	49.192
7.000	46.329
8.000	48.595
9.000	48.895
10.000	45.995
11.000	48.195
12.000	47.495
13.000	48.195
14.000	49.095
15.060	46.832
16.067	47.959
17.062	48.136
18.061	47.543
19.001	45.634
20.001	49.495
21.000	49.044
22.000	43.296
23.000	47.295
24.058	48.577
25.000	48.084
26.001	45.195
27.001	47.495
28.001	47.395
29.001	46.395
30.058	47.961
31.001	46.655
32.001	48.795
33.001	43.396
34.001	46.495
35.001	46.595
36.002	48.495
37.002	48.295
38.087	43.037
39.001	46.713
40.001	45.995
41.001	45.895
42.001	47.395
43.001	47.595
44.059	44.703
45.001	43.945
46.002	45.895
47.002	47.195
48.002	46.895
49.002	47.295
50.002	42.196
51.061	46.832
52.002	43.460
53.002	47.295
54.002	47.495
55.002	42.196
56.002	44.940
57.002	45.995
58.002	47.495
59.002	48.195
60.002	44.996
61.002	47.295
62.002	47.395
63.002	46.495
64.058	46.397
65.002	52.219
66.003	43.596
67.003	47.295
68.003	46.995
69.003	46.995
70.060	46.731
71.060	48.995
72.003	45.064
73.003	46.495
74.002	45.641
75.058	45.019
76.003	50.683
77.003	42.396
78.065	48.112
79.003	44.452
80.003	46.995
81.003	48.195
82.003	43.696
83.003	47.395
84.061	47.821
85.003	45.218
86.066	49.618
87.004	46.264
88.004	42.496
89.070	48.963
90.004	45.499
91.003	46.942
92.003	44.496
93.003	47.495
94.003	46.295
95.061	43.799
96.004	48.882
97.004	47.795
98.004	42.896
99.004	48.695
100.004	47.595
101.004	46.095
102.004	45.495
103.063	44.755
104.004	46.648
105.004	47.695
106.005	46.095
107.035	33.880
