Time [s]	Current [nA]
0.000	0.658
1.000	46.695
2.000	45.695
3.098	45.988
4.000	47.778
5.001	43.296
6.001	45.595
7.001	45.695
8.001	45.395
9.001	46.995
10.001	43.896
11.072	47.241
12.000	43.746
13.065	46.193
14.000	43.739
15.000	47.195
16.001	43.896
17.001	46.095
18.001	45.595
19.001	45.795
20.001	48.395
21.001	43.796
22.074	49.855
23.001	46.166
24.001	46.995
25.001	45.895
26.002	44.296
27.002	48.295
28.064	45.099
29.002	49.995
30.001	46.542
31.001	44.096
32.001	47.495
33.001	48.595
34.001	47.095
35.001	46.395
36.002	45.495
37.002	43.596
38.058	46.018
39.002	45.017
40.002	46.595
41.002	46.795
42.002	47.595
43.059	45.123
44.002	46.337
45.058	44.166
46.058	46.195
47.055	46.134
48.002	50.470
49.002	43.496
50.063	47.969
51.063	45.795
52.002	43.766
53.002	46.295
54.002	44.296
55.056	44.915
56.003	48.464
57.059	43.177
58.058	46.041
59.003	46.450
60.003	47.495
61.003	45.895
62.003	46.095
63.003	45.695
64.002	45.441
65.002	42.996
66.003	47.195
67.061	43.474
68.003	48.191
69.003	45.595
70.003	43.596
71.003	47.395
72.068	42.813
73.003	44.808
74.003	45.995
75.003	46.295
76.004	47.295
77.004	43.196
78.004	45.695
79.004	45.995
80.064	46.976
81.004	45.634
82.005	47.348
83.003	43.282
84.003	46.495
85.003	46.795
86.004	46.595
87.004	47.795
88.004	43.096
89.004	46.095
90.004	45.295
91.004	45.096
92.080	44.512
93.004	45.017
94.063	45.132
95.004	44.629
96.005	46.395
97.005	46.495
98.005	48.195
99.004	44.240
100.004	46.795
101.004	46.595
102.004	45.695
103.004	46.195
104.004	48.495
105.004	44.096
106.005	46.895
107.005	46.495
108.005	47.095
109.005	40.796
