Time [s]	Current [nA]
0.000	16.300
1.000	46.195
2.000	48.495
3.000	47.095
4.000	48.295
5.001	48.695
6.001	46.395
7.001	49.995
8.059	45.742
9.001	50.526
10.001	47.095
11.000	44.740
12.000	48.995
13.000	47.695
14.000	47.895
15.001	47.495
16.001	47.695
17.001	45.395
18.001	50.095
19.001	48.095
20.001	46.995
21.001	46.795
22.001	44.696
23.059	46.026
24.001	49.677
25.002	43.496
26.002	47.395
27.002	47.195
28.002	48.895
29.001	44.840
30.001	47.895
31.001	47.395
32.001	47.895
33.001	49.095
34.001	43.196
35.002	48.395
36.002	47.195
37.051	44.609
38.002	49.522
39.061	46.643
40.063	49.895
41.002	45.256
42.002	47.895
43.002	51.895
44.004	53.787
45.003	48.392
46.002	54.349
47.002	52.595
48.059	49.286
49.065	51.983
50.002	52.609
51.002	54.295
52.002	51.995
53.002	52.195
54.002	32.297
55.003	17.398
56.003	26.197
57.003	38.896
58.003	44.396
59.061	43.663
60.061	51.095
61.003	52.861
62.065	51.407
63.003	56.071
64.002	52.347
65.004	52.290
66.003	51.999
67.003	49.495
68.003	53.795
69.003	47.695
70.003	50.695
71.062	52.308
72.003	51.642
73.003	52.895
74.003	47.095
75.003	51.595
76.004	51.195
77.004	51.795
78.004	53.395
79.004	48.395
80.004	51.195
81.003	50.145
82.003	50.095
83.062	49.759
84.103	49.755
85.003	52.661
86.060	47.722
87.004	52.643
88.004	49.595
89.004	51.895
90.004	47.295
91.004	50.195
92.004	49.895
93.004	49.595
94.004	51.095
95.008	50.543
96.005	47.237
97.005	50.095
98.005	49.495
99.004	49.645
100.004	46.695
101.004	51.195
102.004	49.395
103.004	48.295
104.004	0.300
