Time [s]	Current [nA]
0.000	48.007
0.944	54.867
1.944	56.894
2.944	50.295
4.006	56.021
4.944	52.020
5.945	56.294
6.945	56.194
7.945	51.395
8.945	55.094
9.945	55.095
11.004	51.459
12.004	56.894
13.003	51.446
13.945	58.168
14.945	53.695
16.009	50.889
16.945	53.093
18.018	56.751
18.945	55.334
19.945	54.295
20.945	54.195
22.007	50.842
22.945	48.076
24.004	16.995
25.009	24.201
26.008	35.132
27.008	43.396
28.024	47.830
29.011	54.908
29.946	55.289
30.946	55.394
31.946	55.294
32.946	54.995
34.010	54.788
35.008	51.850
35.946	58.843
36.946	54.595
38.008	51.878
39.008	55.194
40.011	57.422
40.946	54.647
42.008	52.443
42.946	58.843
43.946	55.094
44.946	52.095
45.947	56.994
46.947	55.794
48.009	53.102
48.947	59.269
49.947	55.494
50.947	52.995
51.946	57.852
53.006	53.297
54.007	54.540
54.946	53.030
56.006	53.725
56.947	58.868
57.947	52.595
58.947	55.694
59.947	55.194
60.947	54.895
61.947	57.194
62.947	58.094
64.007	53.297
64.947	52.973
65.948	55.294
66.948	55.894
68.010	54.420
69.012	57.679
69.947	53.257
70.947	55.194
72.012	57.177
72.947	55.289
73.947	52.695
74.947	55.394
75.948	55.494
76.948	54.994
77.948	54.695
78.948	57.994
79.948	52.395
80.948	55.694
82.012	56.573
82.948	52.773
83.948	57.494
84.948	51.295
85.949	55.494
87.012	57.285
87.948	52.238
89.009	56.074
89.948	54.414
91.005	53.353
92.008	55.827
93.013	24.973
