Time [s]	Current [nA]
0.000	30.882
1.057	49.286
2.000	53.335
3.000	50.195
4.000	50.195
5.094	46.107
6.001	52.365
7.001	51.995
8.059	47.538
9.001	53.286
10.055	47.718
11.000	50.260
12.000	51.795
13.000	46.095
14.000	50.695
15.000	50.095
16.001	50.295
17.001	31.097
18.001	17.598
19.001	24.898
20.001	35.396
21.061	44.335
22.001	45.634
23.057	48.291
24.001	53.067
25.068	48.776
26.002	49.031
27.063	52.021
28.001	51.061
29.001	48.295
30.061	52.165
31.001	48.931
32.001	50.095
33.062	49.100
34.008	54.540
35.001	47.729
36.002	51.395
37.002	50.595
38.002	50.095
39.002	47.795
40.002	52.495
41.002	51.395
42.002	50.395
43.002	50.095
44.002	46.495
45.002	50.795
46.002	52.447
47.002	50.395
48.057	47.863
49.054	50.747
50.002	49.784
51.002	52.095
52.002	46.095
53.051	51.854
54.002	52.256
55.002	45.295
56.003	51.695
57.003	51.995
58.003	46.595
59.068	51.544
60.003	48.230
61.003	51.995
62.003	52.095
63.002	45.741
64.002	50.695
65.002	49.595
66.003	49.995
67.003	52.295
68.003	47.895
69.003	50.795
70.003	50.395
71.003	50.295
72.003	51.695
73.003	46.495
74.090	51.421
75.003	50.816
76.004	50.195
77.004	50.695
78.004	52.095
79.004	47.095
80.004	51.495
81.065	47.403
82.003	53.406
83.003	47.695
84.106	51.038
85.003	51.500
86.004	50.495
87.062	47.443
88.004	52.967
89.004	47.595
90.004	52.195
91.004	50.695
92.004	49.795
93.004	50.395
94.004	45.895
95.004	51.495
96.005	52.195
97.068	47.596
98.004	48.713
99.004	50.195
100.004	51.695
101.004	52.295
102.004	15.198
