Time [s]	Current [nA]
0.000	34.397
1.000	53.095
2.083	53.273
3.000	53.103
4.000	50.295
5.000	53.395
6.001	52.195
7.001	51.695
8.001	49.795
9.000	54.049
10.000	52.295
11.000	53.195
12.000	51.895
13.000	52.195
14.000	49.295
15.000	53.995
16.001	47.895
17.001	52.195
18.001	52.195
19.059	50.940
20.001	56.682
21.001	48.595
22.001	52.795
23.001	51.895
24.001	51.295
25.001	52.395
26.002	49.395
27.001	52.147
28.001	51.095
29.001	51.195
30.001	48.295
31.100	51.496
32.063	50.981
33.059	51.501
34.001	54.665
35.001	50.695
36.002	47.895
37.002	52.295
38.002	47.395
39.002	50.695
40.002	49.995
41.002	50.295
42.002	51.795
43.002	52.395
44.001	47.042
45.001	50.495
46.060	51.602
47.064	52.684
48.002	43.599
49.002	12.099
50.002	18.098
51.002	27.297
52.002	34.697
53.002	43.396
54.002	41.296
55.002	48.495
56.003	51.595
57.003	51.995
58.003	53.595
59.003	48.895
60.003	51.195
61.003	52.795
62.064	48.534
63.002	54.152
64.002	48.295
65.002	52.895
66.065	48.206
67.003	54.792
68.003	51.095
69.003	48.395
70.003	51.795
71.061	48.766
72.003	49.889
73.062	51.836
74.003	53.130
75.003	47.795
76.004	52.895
77.004	46.495
78.062	51.602
79.057	49.241
80.003	50.101
81.003	49.995
82.063	49.806
83.003	48.506
84.069	51.777
85.003	49.674
86.004	52.095
87.004	46.995
88.004	50.695
89.004	49.895
90.004	49.995
91.102	46.261
92.004	51.104
93.004	51.695
94.004	49.195
95.004	49.395
96.005	44.996
97.058	48.238
98.004	53.589
99.004	44.496
100.066	50.937
101.102	21.812
