Time [s]	Current [nA]
0.000	36.052
1.060	48.014
2.000	48.080
3.000	48.795
4.000	52.795
5.001	44.396
6.064	52.206
7.060	46.180
8.001	47.604
9.001	52.195
10.001	48.295
11.001	46.395
12.001	50.595
13.001	44.996
14.001	47.795
15.065	48.725
16.001	46.042
17.001	49.195
18.001	49.195
19.013	47.821
20.054	46.201
21.001	50.787
22.001	46.195
23.001	50.195
24.001	44.196
25.002	47.895
26.002	47.495
27.002	47.095
28.002	48.995
29.002	45.595
30.002	48.395
31.002	46.895
32.056	48.667
33.001	47.720
34.001	49.295
35.001	43.596
36.002	47.295
37.002	46.295
38.002	46.795
39.002	48.995
40.002	44.995
41.002	47.695
42.002	51.095
43.057	45.114
44.002	47.614
45.003	48.595
46.003	49.695
47.003	44.596
48.003	47.395
49.064	49.194
50.002	48.076
51.061	46.738
52.002	47.285
53.002	47.795
54.002	52.095
55.002	43.796
56.054	47.759
57.003	52.893
58.065	46.229
59.058	48.535
60.058	48.395
61.065	51.236
62.003	49.249
63.003	44.995
64.003	48.795
65.003	52.295
66.004	44.096
67.003	50.545
68.003	50.195
69.003	45.495
70.003	48.495
71.003	52.695
72.003	46.395
73.003	51.095
74.003	44.696
75.003	49.095
76.004	51.995
77.004	43.996
78.004	50.295
79.004	50.995
80.004	45.095
81.004	48.195
82.065	49.005
83.065	50.395
84.004	48.238
85.003	44.640
86.004	48.395
87.004	47.295
88.004	47.495
89.004	49.395
90.004	50.295
91.004	44.496
92.004	27.097
93.004	13.599
94.004	23.298
95.004	30.097
96.005	38.096
97.005	37.196
98.061	43.840
99.005	51.160
100.005	47.595
101.063	48.294
102.004	47.923
103.004	48.495
104.004	52.495
105.004	43.996
106.114	37.598
