Time [s]	Current [nA]
0.000	23.479
0.943	52.063
1.943	49.695
2.943	46.295
3.943	50.995
5.024	51.384
5.944	47.821
7.000	45.639
7.944	51.584
9.000	48.196
9.943	49.094
11.001	47.349
12.000	49.144
13.000	49.295
14.001	50.844
14.943	48.721
15.944	50.095
16.944	49.295
17.944	49.195
18.944	49.395
20.003	48.248
20.944	50.367
21.944	49.295
22.944	48.295
23.944	48.695
24.944	50.995
25.945	45.295
27.000	49.284
27.944	51.584
29.003	46.360
29.944	52.492
30.944	46.095
31.944	50.895
32.944	49.395
33.944	49.195
34.944	48.595
35.945	50.495
36.945	46.095
37.945	51.195
38.945	49.595
39.945	49.195
40.945	48.495
41.945	46.595
42.945	50.995
43.945	50.395
44.944	48.844
45.945	48.995
46.945	49.495
47.945	46.995
48.945	50.995
49.945	49.595
50.945	48.395
51.945	48.795
52.945	50.595
53.945	46.595
54.945	49.695
55.946	48.795
56.946	48.195
58.002	45.734
58.946	49.148
59.946	50.695
60.946	49.895
61.946	48.795
62.945	48.844
64.004	47.682
64.945	48.029
65.946	49.895
66.946	48.795
67.946	48.395
68.946	48.595
69.946	46.495
70.946	50.595
71.946	49.295
72.946	48.595
74.003	46.069
74.946	53.123
76.034	21.065
76.947	15.223
77.947	23.798
79.004	29.325
79.946	39.062
80.946	42.796
81.946	41.296
82.946	50.795
83.946	50.795
84.946	51.395
85.947	51.995
86.947	47.395
87.947	52.095
88.947	50.895
89.947	49.895
90.947	49.895
91.947	51.595
92.947	47.195
93.947	50.595
95.006	46.926
96.011	49.895
96.948	52.930
97.947	47.443
99.005	48.766
99.947	53.073
100.947	50.595
101.947	51.395
102.947	53.395
104.054	31.253
