Time [s]	Current [nA]
0.000	12.921
1.000	52.695
2.000	47.995
3.000	50.495
4.000	50.895
5.001	50.895
6.063	50.089
7.001	50.741
8.066	52.201
9.001	49.514
10.001	49.695
11.001	47.395
12.001	50.895
13.001	52.995
14.001	50.795
15.064	47.453
16.002	53.726
17.002	47.095
18.001	52.347
19.001	50.595
20.001	45.795
21.001	50.195
22.001	50.595
23.001	51.195
24.001	46.895
25.002	49.695
26.002	49.195
27.002	48.995
28.002	50.695
29.002	46.995
30.002	50.195
31.002	48.895
32.002	48.595
33.002	48.295
34.002	51.395
35.001	45.541
36.002	49.195
37.002	48.495
38.002	48.795
39.002	49.695
40.002	49.495
41.002	43.896
42.002	48.895
43.002	48.295
44.002	48.095
45.002	50.595
46.003	46.295
47.003	48.695
48.003	48.095
49.003	48.395
50.003	50.495
51.070	47.699
52.002	47.849
53.002	48.695
54.064	50.183
55.002	46.264
56.003	50.295
57.003	50.395
58.064	47.592
59.065	49.046
60.003	47.330
61.003	50.895
62.003	49.495
63.003	46.395
64.003	49.295
65.003	49.195
66.004	49.495
67.004	51.295
68.004	47.195
69.004	50.295
70.003	49.645
71.003	49.995
72.003	49.695
73.003	49.995
74.003	46.395
75.003	49.595
76.004	49.295
77.004	49.695
78.004	46.495
79.004	20.898
80.004	17.098
81.004	26.897
82.004	31.197
83.004	40.396
84.004	45.095
85.004	43.896
86.067	53.102
87.004	49.835
88.004	51.095
89.004	48.195
90.004	52.495
91.004	49.995
92.004	49.595
93.067	46.844
94.004	52.076
95.004	46.995
96.005	51.595
97.005	45.695
98.005	48.095
99.005	48.395
100.005	51.495
101.005	50.495
102.005	45.895
103.005	49.495
104.094	32.963
