Time [s]	Current [nA]
0.000	18.198
1.000	13.899
2.000	22.298
3.000	28.697
3.999	37.534
5.000	41.196
6.000	42.696
7.000	46.395
8.000	50.595
9.057	49.191
10.000	53.123
11.000	50.095
12.000	49.995
13.000	47.295
14.000	51.395
15.064	47.690
16.063	49.745
17.001	52.127
18.001	49.795
19.061	48.769
20.001	48.931
21.001	48.995
22.000	49.244
23.000	49.095
24.000	50.995
25.001	46.895
26.001	49.995
27.001	48.695
28.001	48.695
29.085	45.198
30.001	51.087
31.001	49.595
32.001	49.395
33.001	48.695
34.001	48.595
35.009	49.647
36.002	47.226
37.002	48.595
38.002	48.995
39.001	44.940
40.001	48.295
41.057	47.438
42.001	52.325
43.001	45.095
44.001	48.495
45.002	48.695
46.065	46.938
47.098	48.107
48.002	49.221
49.002	47.595
50.002	47.195
51.002	47.795
52.002	49.795
53.059	47.110
54.002	48.033
55.003	47.795
56.003	47.695
57.002	49.444
58.092	43.482
59.002	50.105
60.002	47.695
61.002	47.395
62.064	49.524
63.002	47.756
64.060	46.876
65.064	49.347
66.003	46.108
67.003	48.395
68.003	49.495
69.065	47.076
70.003	48.396
71.003	48.395
72.003	48.795
73.003	49.095
74.002	46.842
75.065	51.972
76.065	44.596
77.003	51.914
78.003	48.695
79.003	47.495
80.003	45.795
81.003	50.495
82.065	45.287
83.003	51.381
84.003	47.995
85.003	49.295
86.004	45.595
87.004	48.695
88.004	48.395
89.061	45.785
90.004	50.896
91.004	50.195
92.003	46.442
93.003	48.995
94.003	47.595
95.003	47.995
96.004	49.695
97.004	45.195
98.004	49.595
99.004	48.395
100.004	47.895
101.004	47.795
102.004	44.496
103.004	50.195
104.004	47.995
105.004	47.095
106.005	5.199
