Time [s]	Current [nA]
0.000	31.764
1.056	54.161
2.056	52.395
3.000	53.067
4.000	55.094
5.083	49.256
6.000	53.430
7.000	53.195
8.000	52.295
9.000	53.695
10.000	48.995
11.000	52.695
12.000	51.395
13.000	51.995
14.000	50.095
15.001	52.595
16.001	53.795
17.001	52.495
18.001	51.695
19.001	51.695
20.001	49.295
21.001	53.895
22.001	52.095
23.000	51.747
24.058	49.050
25.009	56.205
26.081	48.503
27.001	52.929
28.001	51.795
29.001	51.395
30.001	50.895
31.001	47.995
32.001	53.295
33.001	51.895
34.001	50.695
35.002	50.795
36.002	50.995
37.002	48.195
38.002	51.995
39.002	50.095
40.002	50.095
41.001	49.945
42.001	51.695
43.001	47.595
44.001	50.695
45.060	47.538
46.002	53.179
47.002	49.895
48.002	47.495
49.002	51.995
50.002	50.995
51.002	49.495
52.056	47.054
53.002	54.329
54.002	46.895
55.003	49.895
56.003	49.595
57.003	48.995
58.002	48.944
59.002	51.495
60.002	47.295
61.002	49.695
62.002	49.095
63.002	49.395
64.002	51.395
65.002	45.395
66.003	51.495
67.003	50.295
68.003	49.495
69.003	49.495
70.003	51.795
71.003	47.395
72.003	50.595
73.003	49.095
74.003	49.795
75.003	50.995
76.003	45.141
77.003	51.895
78.003	49.895
79.057	46.770
80.068	53.704
81.003	46.199
82.003	50.895
83.061	48.010
84.003	52.649
85.066	46.794
86.004	48.183
87.004	51.695
88.004	51.295
89.004	45.595
90.061	50.704
91.004	51.745
92.004	47.095
93.003	51.146
94.078	46.135
95.003	48.428
96.004	48.495
97.004	25.897
98.004	14.999
99.004	22.198
100.004	31.697
101.004	36.896
102.004	0.300
