Time [s]	Current [nA]
0.000	38.276
0.942	34.179
1.942	13.299
2.942	22.998
3.942	30.797
4.941	37.234
5.942	41.596
6.942	44.396
7.942	45.895
8.942	52.195
9.942	50.895
10.942	50.195
11.942	49.795
12.942	47.695
14.005	53.899
14.942	48.128
15.943	48.795
16.943	48.495
18.042	50.313
19.004	47.189
19.943	50.581
20.943	49.895
21.942	49.745
22.998	46.965
23.996	51.798
24.942	50.418
25.943	50.295
27.006	47.973
27.943	53.463
28.943	50.095
29.943	47.195
31.002	48.532
31.943	49.517
32.998	51.654
33.943	52.693
34.943	47.795
35.944	51.395
36.944	45.295
38.006	51.596
39.003	49.845
39.943	48.080
40.943	52.795
41.943	51.995
42.943	46.295
44.005	51.031
44.943	48.183
45.944	51.795
46.944	50.395
47.944	47.995
48.944	50.295
49.944	49.595
50.944	54.395
51.944	47.895
52.944	52.895
53.944	46.595
54.944	49.995
55.945	50.295
56.944	49.545
57.944	51.195
58.944	51.695
59.944	45.795
60.944	49.395
61.944	49.195
62.944	50.895
63.944	51.195
64.944	45.695
65.945	49.195
66.952	53.818
67.945	45.816
68.945	51.895
69.945	50.495
70.945	44.896
71.945	47.995
72.945	53.195
73.945	46.295
74.944	50.946
75.945	44.995
77.011	50.745
77.945	47.212
78.945	49.295
80.003	47.821
80.945	49.677
81.945	48.995
82.945	49.095
83.945	49.395
84.945	50.895
85.946	45.895
86.946	49.495
88.003	45.975
88.946	51.108
89.946	48.295
90.946	50.795
91.945	46.942
92.945	49.895
93.945	49.295
94.945	49.395
96.003	48.150
96.946	47.079
97.946	50.795
98.946	49.695
99.946	48.695
100.946	49.595
102.005	48.248
103.077	35.537
