Time [s]	Current [nA]
0.000	31.297
1.000	41.096
2.065	10.797
3.065	16.598
4.000	23.420
5.000	31.597
6.001	36.996
7.000	36.733
8.000	43.196
9.055	44.545
10.000	49.942
11.000	44.496
12.000	48.895
13.000	47.195
14.000	46.795
15.000	46.995
16.001	41.896
17.001	48.395
18.001	47.195
19.063	43.781
20.001	44.132
21.001	46.095
22.001	47.795
23.001	44.096
24.066	47.789
25.068	46.149
26.070	45.704
27.001	44.786
28.001	47.795
29.001	43.196
30.001	46.095
31.001	45.595
32.001	45.095
33.057	44.124
34.001	44.487
35.001	45.495
36.002	45.595
37.002	44.796
38.002	44.896
39.002	43.096
40.002	46.895
41.002	44.896
42.061	41.828
43.060	43.940
44.001	43.885
45.089	41.118
46.056	47.255
47.002	43.759
48.002	44.496
49.002	44.496
50.002	45.995
51.002	41.296
52.002	44.296
53.066	45.296
54.002	42.517
55.002	45.295
56.003	43.396
57.003	42.596
58.003	44.696
59.003	44.396
60.002	44.240
61.005	45.459
62.002	42.022
63.002	44.896
64.002	44.096
65.065	41.427
66.003	47.650
67.003	41.296
68.003	46.295
69.003	45.095
70.003	43.896
71.003	44.296
72.003	42.196
73.061	43.663
74.003	42.671
75.003	45.295
76.004	44.296
77.003	44.240
78.003	45.295
79.003	45.695
80.003	40.896
81.063	45.844
82.003	43.294
83.003	46.495
84.007	46.111
85.003	40.859
86.004	44.995
87.004	44.196
88.004	44.496
89.004	45.695
90.004	45.995
91.004	41.296
92.004	44.596
93.004	44.796
94.004	46.195
95.003	40.637
96.004	46.295
97.067	42.799
98.004	47.914
99.066	41.615
100.004	45.518
101.004	46.295
102.004	45.195
103.004	44.796
104.004	44.296
105.004	41.296
106.005	45.395
107.005	46.595
108.005	44.496
109.005	44.196
110.005	44.096
111.005	42.196
112.059	43.165
113.004	46.874
114.004	40.296
