Time [s]	Current [nA]
0.000	0.654
1.000	49.295
2.057	46.637
3.000	54.183
4.000	46.295
5.001	50.395
6.001	49.695
7.063	50.277
8.001	48.929
9.001	44.696
10.062	51.927
11.062	44.296
12.000	51.701
13.000	48.895
14.000	46.795
15.000	50.395
16.001	44.596
17.057	49.143
18.001	50.948
19.001	45.095
20.083	51.196
21.061	46.314
22.067	49.001
23.001	46.676
24.001	48.195
25.001	50.295
26.067	46.944
27.001	46.997
28.001	48.495
29.056	45.588
30.001	50.365
31.056	47.389
32.001	47.826
33.001	48.695
34.001	48.495
35.001	49.795
36.061	49.192
37.056	46.930
38.002	52.849
39.063	47.875
40.002	53.030
41.002	50.195
42.068	49.057
43.058	47.167
44.002	53.490
45.001	49.745
46.002	50.095
47.002	47.695
48.002	51.995
49.002	50.395
50.002	50.795
51.065	47.220
52.002	53.570
53.002	47.595
54.002	52.995
55.060	48.434
56.003	48.458
57.003	49.995
58.059	49.143
59.003	54.232
60.003	47.095
61.003	50.395
62.002	49.845
63.002	49.895
64.063	49.382
65.002	50.368
66.003	50.495
67.003	49.795
68.068	51.075
69.003	49.728
70.065	48.865
71.003	50.741
72.003	49.995
73.003	50.395
74.069	51.496
75.003	49.781
76.004	47.395
77.004	50.495
78.004	49.395
79.004	49.495
80.094	45.592
81.003	51.920
82.003	51.795
83.003	50.095
84.003	49.295
85.003	49.195
86.004	47.495
87.004	51.395
88.004	45.395
89.004	50.395
90.004	49.695
91.070	51.683
92.066	46.582
93.004	49.995
94.004	49.495
95.067	51.407
96.067	49.295
97.004	48.981
98.004	45.795
99.004	50.095
100.004	50.095
101.004	49.395
102.004	23.498
