Time [s]	Current [nA]
0.000	10.657
1.062	42.839
2.000	42.640
3.000	39.196
4.000	42.296
5.000	46.095
6.001	39.196
7.001	44.396
8.001	44.096
9.001	38.996
10.001	41.996
11.000	42.338
12.062	45.570
13.000	42.426
14.000	38.496
15.000	42.696
16.001	42.696
17.001	42.796
18.064	41.576
19.001	42.472
20.001	42.796
21.001	42.396
22.001	42.296
23.001	40.196
24.001	43.296
25.001	42.496
26.002	42.096
27.002	41.896
28.001	41.838
29.063	31.259
30.063	10.999
31.001	15.777
32.065	24.528
33.001	28.202
34.001	35.196
35.001	32.397
36.002	41.696
37.059	40.583
38.002	45.383
39.002	42.796
40.002	43.996
41.002	40.796
42.002	43.096
43.002	42.096
44.002	42.696
45.002	43.296
46.002	42.238
47.002	40.496
48.002	42.296
49.002	41.696
50.002	41.896
51.002	43.296
52.002	39.396
53.059	40.299
54.002	44.110
55.066	42.329
56.087	37.117
57.003	43.009
58.003	42.996
59.003	42.196
60.003	41.396
61.003	41.396
62.003	42.496
63.002	39.436
64.002	41.896
65.002	42.196
66.003	41.696
67.003	41.896
68.012	39.144
69.062	40.758
70.003	40.272
71.003	43.996
72.003	40.696
73.003	39.396
74.062	39.939
75.009	43.547
76.068	39.751
77.004	39.205
78.004	40.996
79.004	42.896
80.004	39.096
81.003	41.237
82.003	40.896
83.003	40.996
84.003	42.596
85.003	42.696
86.004	38.696
87.004	41.296
88.004	40.496
89.004	41.296
90.066	44.346
91.063	39.314
92.004	40.910
93.004	41.396
94.004	41.396
95.004	41.996
96.005	42.596
97.005	43.596
98.004	38.735
99.060	42.515
100.004	39.615
101.067	44.586
102.004	41.725
103.063	40.128
104.004	39.847
105.060	42.460
106.005	39.996
107.005	43.496
108.005	42.796
109.005	38.596
110.005	41.696
111.007	45.005
112.005	39.475
113.005	43.396
114.078	39.232
115.005	41.420
116.005	41.437
117.005	41.296
118.005	42.996
119.005	43.196
120.067	39.544
121.005	39.655
122.005	44.496
123.020	15.860
