Time [s]	Current [nA]
0.000	44.105
1.000	48.095
1.999	48.344
2.939	48.506
3.939	49.895
4.939	44.796
5.940	48.495
6.940	48.095
7.940	48.595
8.940	50.195
9.940	45.495
10.940	48.695
11.940	48.295
12.940	48.195
13.939	49.745
14.999	47.637
15.940	47.017
16.940	48.995
18.006	49.245
19.000	47.480
19.997	44.930
20.997	49.695
21.940	46.231
22.940	47.695
24.001	49.194
24.940	47.919
25.941	50.095
27.003	46.041
27.941	46.477
28.941	46.795
29.998	48.245
30.941	47.503
31.940	45.341
32.940	48.195
33.940	47.495
34.940	47.395
35.941	48.995
36.941	47.995
37.941	45.395
38.941	48.095
39.941	47.995
40.941	47.195
41.941	49.595
42.941	49.895
43.941	44.896
44.941	48.095
46.007	49.291
46.942	46.947
47.942	49.095
48.941	45.141
49.941	47.995
50.941	48.595
51.941	47.395
52.941	48.895
53.941	44.996
54.941	48.295
55.942	47.295
56.942	46.895
57.942	46.995
58.942	44.696
59.996	46.770
60.942	50.629
61.999	44.934
62.942	49.412
63.942	44.896
64.942	49.095
65.943	48.095
66.942	47.042
67.942	46.695
68.942	46.395
69.942	44.995
70.942	48.695
71.942	47.795
72.942	46.195
73.942	46.295
74.942	47.995
75.943	44.496
76.943	47.795
77.943	47.795
78.943	46.895
80.000	44.366
80.943	46.973
81.943	48.495
82.943	48.195
83.942	47.743
84.999	44.745
85.943	47.715
86.943	46.995
87.943	48.795
88.943	47.495
90.000	17.879
90.943	15.481
91.943	24.698
92.943	29.297
93.943	38.196
94.943	40.396
95.944	43.296
96.944	50.295
97.944	46.395
98.944	51.895
99.944	49.695
100.944	48.695
101.943	48.744
102.943	50.295
103.943	46.395
104.943	49.895
106.001	45.596
107.099	24.406
