Time [s]	Current [nA]
0.000	10.062
1.000	40.296
2.000	40.296
3.000	37.996
4.000	41.596
5.001	41.596
6.001	41.496
7.001	40.496
8.001	36.796
9.001	42.196
10.001	41.996
11.001	37.196
12.001	40.396
13.001	40.196
14.001	41.396
15.002	39.796
16.001	38.134
17.001	39.896
18.001	39.996
19.001	40.196
20.059	39.694
21.001	40.442
22.001	40.696
23.001	40.596
24.001	40.596
25.002	41.796
26.002	38.396
27.002	42.296
28.068	39.208
29.002	38.861
30.068	41.553
31.002	41.002
32.063	40.241
33.068	41.986
34.001	39.546
35.002	40.696
36.002	37.196
37.002	10.499
38.002	13.199
39.002	21.698
40.002	27.397
41.002	32.697
42.002	35.996
43.002	36.996
44.002	42.696
45.003	43.496
46.003	42.496
47.003	42.296
48.063	41.600
49.003	42.336
50.064	39.487
51.063	41.537
52.002	43.872
53.002	38.696
54.002	41.396
55.003	43.296
56.003	41.596
57.003	41.096
58.003	41.396
59.003	39.096
60.003	42.896
61.003	41.296
62.003	41.096
63.003	41.096
64.003	37.796
65.003	41.696
66.004	42.496
67.004	37.996
68.069	41.874
69.003	39.075
70.003	41.996
71.003	38.396
72.003	41.496
73.003	40.896
74.003	40.696
75.003	40.896
76.004	38.996
77.061	39.258
78.004	43.156
79.004	40.396
80.004	40.296
81.004	38.496
82.004	41.796
83.004	36.896
84.004	41.096
85.004	40.396
86.004	40.036
87.004	41.696
88.004	38.196
89.004	40.696
90.004	40.296
91.004	40.296
92.004	41.896
93.004	37.896
94.073	41.904
95.004	39.523
96.005	40.396
97.005	40.396
98.005	41.996
99.066	40.053
100.005	39.719
101.067	42.086
102.005	38.802
103.004	42.638
104.004	37.196
105.004	42.196
106.005	40.696
107.005	40.196
108.005	40.896
109.005	38.996
110.005	42.296
111.005	41.196
112.005	40.696
113.005	40.696
114.088	39.054
115.005	41.217
116.006	42.596
117.006	41.496
118.006	40.796
119.006	40.996
120.005	38.735
121.064	39.939
122.005	39.954
123.005	40.596
124.005	40.396
125.005	40.396
126.123	25.333
