Time [s]	Current [nA]
0.000	7.631
1.000	48.195
2.000	42.196
3.060	47.354
4.000	44.357
5.001	45.995
6.001	48.195
7.000	42.839
8.000	46.295
9.000	45.195
10.000	45.895
11.051	45.571
12.058	47.066
13.000	44.263
14.000	46.695
15.067	47.556
16.001	44.321
17.062	45.424
18.001	46.534
19.001	45.895
20.001	44.796
21.067	47.181
22.001	45.285
23.001	46.795
24.001	41.896
25.000	45.341
26.001	44.596
27.001	44.995
28.001	46.995
29.001	42.996
30.001	45.795
31.001	45.695
32.001	45.395
33.001	47.595
34.001	46.395
35.001	43.296
36.002	46.095
37.002	45.495
38.002	45.495
39.002	47.395
40.002	42.896
41.002	45.095
42.001	45.641
43.001	44.796
44.001	45.895
45.001	42.496
46.002	46.395
47.061	41.922
48.002	47.392
49.002	44.896
50.002	42.896
51.002	46.795
52.002	41.296
53.002	45.495
54.002	44.896
55.002	44.996
56.003	47.195
57.012	46.477
58.003	41.873
59.003	44.496
60.068	46.193
61.061	42.292
62.061	46.595
63.002	43.460
64.002	45.795
65.002	45.295
66.003	44.896
67.003	45.995
68.003	42.196
69.003	44.896
70.003	44.596
71.068	45.723
72.003	44.488
73.003	46.295
74.003	42.296
75.003	45.195
76.004	44.296
77.003	44.940
78.003	46.495
79.003	42.096
80.003	45.395
81.003	44.396
82.003	44.896
83.003	45.095
84.003	41.496
85.003	45.795
86.004	44.596
87.004	45.095
88.004	40.596
89.004	45.595
90.004	45.595
91.004	41.096
92.004	44.496
93.004	44.496
94.004	44.196
95.003	46.642
96.004	42.096
97.004	45.195
98.066	46.700
99.004	43.599
100.004	46.495
101.004	42.696
102.004	45.595
103.004	45.595
104.063	42.961
105.004	44.098
106.005	46.395
107.062	45.218
108.005	43.792
109.005	45.095
110.005	45.195
111.067	44.252
112.004	0.320
