Time [s]	Current [nA]
0.000	5.533
0.943	48.882
1.943	42.796
2.943	46.895
3.943	48.195
4.943	46.295
5.943	46.142
7.000	43.420
7.997	47.839
8.943	46.190
9.943	46.995
10.943	45.895
11.943	46.095
12.943	46.095
13.943	43.596
14.943	47.895
15.944	47.095
16.944	46.095
17.944	45.995
18.944	44.096
19.944	48.095
20.944	47.295
21.944	45.995
22.943	45.841
24.000	44.556
25.010	47.666
26.001	44.294
26.944	48.988
28.001	43.326
28.944	48.988
29.944	43.396
30.944	47.995
31.944	46.995
32.944	46.395
33.944	46.195
34.944	46.095
36.001	45.734
37.003	43.908
37.945	48.721
38.945	45.895
39.945	46.195
40.944	47.943
41.944	43.396
42.944	47.095
43.944	45.995
44.944	45.595
45.945	46.295
46.945	43.896
47.945	48.095
48.945	46.995
50.003	43.757
50.945	49.252
52.001	45.450
52.945	45.334
53.945	48.695
54.945	46.395
55.946	46.295
56.946	46.395
57.998	45.148
58.945	46.563
59.945	47.495
60.945	45.595
61.945	45.995
62.950	47.159
64.006	44.692
65.003	43.526
65.946	48.934
66.946	45.695
67.946	45.695
68.946	47.395
69.946	43.496
70.946	47.595
71.946	45.695
72.946	45.195
73.946	45.895
74.946	43.896
75.946	47.343
76.946	45.695
77.946	45.695
78.946	45.895
79.946	47.295
80.946	43.996
82.032	47.141
82.946	45.291
83.946	45.795
84.946	45.695
86.011	44.920
86.947	45.401
87.947	45.095
88.947	44.796
89.947	45.395
90.947	43.196
91.947	47.195
92.946	46.142
93.946	35.496
94.946	11.199
95.947	17.698
97.013	25.795
97.947	32.866
98.947	37.396
99.947	39.096
100.947	44.796
101.947	48.695
102.947	43.796
104.004	46.921
104.947	50.578
105.948	47.195
106.948	46.995
108.004	46.302
109.006	44.507
109.948	49.783
110.947	46.142
111.947	5.099
