Time [s]	Current [nA]
0.000	4.993
0.939	45.682
2.000	42.032
2.939	42.914
4.001	41.145
4.938	45.887
5.939	42.996
6.939	43.096
7.939	41.696
8.939	44.296
9.939	42.896
10.939	42.996
11.939	42.396
12.939	40.296
13.939	44.296
14.939	42.796
15.940	43.496
16.940	42.496
17.940	42.596
18.940	36.896
19.940	11.399
20.940	15.098
21.939	23.221
22.939	28.897
23.939	32.497
24.939	36.096
25.940	41.796
26.940	44.696
27.940	44.096
28.940	44.296
29.940	41.996
30.940	45.695
31.940	44.296
32.940	43.996
33.940	40.896
34.940	44.995
36.023	41.216
36.941	45.965
37.941	43.996
38.999	41.300
39.940	46.648
40.940	41.296
41.940	45.195
42.940	43.996
43.940	43.696
44.940	43.696
45.941	44.096
47.001	43.298
47.941	44.464
49.003	43.404
50.003	45.295
50.941	48.183
51.941	42.496
52.941	46.695
53.941	45.295
54.941	45.395
55.942	44.796
56.941	44.840
57.941	42.396
58.941	46.395
60.003	42.557
60.998	44.317
61.999	44.451
62.941	48.827
63.941	42.196
64.941	45.095
65.942	45.495
66.942	44.596
67.942	44.596
68.942	41.996
70.000	43.757
70.942	48.084
71.942	44.796
72.942	44.796
73.942	42.496
74.941	45.241
75.999	43.988
76.942	48.033
77.942	44.596
78.942	44.496
79.942	42.296
80.999	43.988
81.942	47.291
82.942	44.196
83.999	41.812
84.942	42.944
85.943	45.595
86.943	45.895
87.943	44.396
88.943	43.996
89.943	44.096
90.943	41.696
91.996	43.395
92.942	42.913
94.008	45.211
94.942	42.073
95.943	43.196
96.943	45.695
97.943	41.596
98.943	43.896
99.943	43.096
101.003	44.524
101.943	43.187
102.943	44.796
104.020	40.850
104.943	43.224
105.944	43.196
106.944	43.196
108.000	42.893
108.944	43.746
110.003	45.416
110.943	41.804
111.943	43.796
112.943	44.995
113.995	42.771
115.024	42.116
115.944	43.583
117.074	31.590
