Time [s]	Current [nA]
0.000	9.113
1.000	40.296
2.000	40.296
3.000	38.596
4.000	41.596
5.001	40.596
6.001	39.596
7.001	39.496
8.001	39.896
9.001	38.296
10.001	41.396
11.001	40.196
12.001	39.896
13.001	39.596
14.001	37.296
15.002	40.996
16.002	39.996
17.001	40.536
18.001	39.996
19.056	38.195
20.001	39.890
21.001	41.996
22.001	37.096
23.001	39.896
24.001	39.896
25.002	41.696
26.002	41.496
27.002	41.096
28.002	37.796
29.002	40.496
30.002	40.496
31.002	41.096
32.002	38.196
33.002	40.396
34.002	39.396
35.001	39.636
36.061	39.090
37.002	38.785
38.002	41.696
39.002	39.696
40.002	38.096
41.002	8.399
42.002	10.599
43.002	18.798
44.064	22.502
45.061	30.117
46.003	34.391
47.003	36.296
48.066	40.259
49.003	41.725
50.060	39.637
51.055	41.604
52.002	43.501
53.061	40.506
54.002	41.972
55.002	41.996
56.003	40.996
57.063	38.864
58.003	43.613
59.003	39.296
60.003	43.096
61.060	40.015
62.003	43.898
63.003	41.396
64.003	42.896
65.003	39.496
66.004	41.396
67.004	41.596
68.059	38.385
69.004	43.382
70.003	43.039
71.003	39.696
72.061	39.788
73.003	43.732
74.003	40.796
75.003	42.896
76.004	38.396
77.004	42.096
78.004	41.596
79.004	40.896
80.004	40.896
81.004	42.396
82.004	39.496
83.004	42.196
84.004	41.296
85.004	40.996
86.005	42.396
87.104	38.486
88.004	42.885
89.059	39.712
90.004	43.488
91.004	40.996
92.004	43.096
93.004	39.996
94.004	41.796
95.062	38.691
96.005	43.580
97.011	42.739
98.005	38.527
99.005	43.096
100.064	39.090
101.005	43.566
102.005	40.996
103.005	39.296
104.064	40.128
105.004	40.102
106.005	40.396
107.065	41.317
108.005	39.251
109.005	42.196
110.005	42.096
111.005	37.396
112.005	43.596
113.005	40.696
114.005	38.596
115.065	39.939
116.006	39.210
117.068	41.804
118.006	39.122
119.006	43.596
120.006	38.696
121.006	41.796
122.005	37.033
123.005	39.696
124.064	40.317
125.005	39.954
126.006	41.896
127.006	0.300
