Time [s]	Current [nA]
0.000	17.227
1.000	47.695
2.000	46.795
3.000	47.595
4.000	49.395
5.000	44.496
6.001	48.295
7.001	46.595
8.062	44.388
9.001	50.048
10.001	45.595
11.001	49.395
12.000	48.344
13.000	48.195
14.000	48.895
15.000	51.195
16.063	48.489
17.001	47.010
18.001	50.095
19.001	48.895
20.056	46.441
21.001	48.884
22.001	50.695
23.001	13.799
24.001	12.599
25.001	21.898
26.002	30.697
27.003	37.359
28.067	38.436
29.002	43.204
30.001	50.045
31.001	51.095
32.001	52.295
33.001	47.295
34.064	47.785
35.001	53.783
36.002	49.895
37.002	51.795
38.002	45.395
39.059	49.380
40.060	49.845
41.002	52.543
42.002	49.295
43.002	51.195
44.002	47.295
45.002	49.995
46.059	46.302
47.057	48.893
48.002	53.011
49.002	49.695
50.002	46.895
51.002	49.695
52.002	48.795
53.002	48.895
54.002	50.095
55.002	46.095
56.003	49.395
57.003	47.995
58.003	47.695
59.003	48.295
60.003	46.395
61.003	49.495
62.003	48.695
63.003	47.595
64.002	47.943
65.002	49.795
66.003	45.495
67.082	49.856
68.065	44.655
69.003	51.381
70.003	48.395
71.003	47.195
72.003	49.795
73.003	44.296
74.003	47.995
75.065	49.665
76.004	48.238
77.007	49.845
78.004	48.240
79.004	44.596
80.004	48.695
81.004	48.595
82.003	50.145
83.003	45.895
84.003	48.095
85.003	46.895
86.059	45.398
87.004	52.164
88.004	43.296
89.004	49.995
90.004	48.395
91.061	44.934
92.004	50.472
93.004	49.595
94.067	47.596
95.004	46.527
96.060	45.398
97.005	49.730
98.005	49.095
99.004	47.743
100.004	45.295
101.004	48.095
102.004	46.695
103.004	46.795
104.004	48.695
105.004	44.296
106.005	47.095
107.005	9.499
