Time [s]	Current [nA]
0.000	16.101
0.938	40.081
1.938	42.396
2.938	42.896
3.999	41.655
4.992	40.479
5.939	43.970
7.002	44.869
7.997	39.996
8.994	42.824
9.994	45.595
10.939	44.228
11.938	45.541
12.938	43.996
13.938	43.296
14.938	41.396
16.024	46.263
16.939	44.039
17.939	40.896
18.939	44.896
20.004	47.601
20.939	45.771
21.939	42.796
22.939	46.495
23.939	45.195
24.939	45.595
25.940	47.095
26.940	42.196
27.940	47.595
29.002	43.875
29.939	49.088
30.939	46.395
31.939	44.696
32.939	47.595
33.939	42.196
34.939	45.795
35.940	45.795
36.940	46.295
37.940	48.895
38.940	44.196
39.940	47.495
40.940	47.195
41.995	44.545
42.940	51.423
44.001	47.121
44.940	45.363
45.941	47.995
46.999	43.852
47.940	49.623
49.002	46.700
49.996	44.764
50.999	47.951
51.940	45.904
52.999	48.720
53.940	47.392
55.010	45.833
55.941	47.149
57.007	49.338
57.941	46.355
59.006	49.291
59.941	48.124
60.941	45.595
61.941	48.195
62.941	47.195
63.940	47.943
64.940	48.995
65.941	43.796
66.941	49.495
67.941	48.495
69.004	45.245
69.941	51.329
70.941	45.995
71.941	49.595
73.003	45.476
73.941	46.264
74.941	48.195
75.942	48.795
77.007	46.474
77.942	49.193
79.007	50.136
79.942	46.412
81.004	50.183
81.941	43.646
82.941	48.695
83.941	48.295
84.941	47.295
86.004	44.440
86.942	50.954
87.942	44.796
89.005	46.279
89.942	51.649
91.005	44.398
91.942	50.902
92.942	44.596
93.942	48.395
94.942	43.296
95.943	48.095
96.943	47.295
98.009	48.588
98.942	48.120
99.942	45.295
101.004	49.524
101.942	45.411
102.942	47.695
103.942	48.695
104.942	44.396
105.943	48.595
106.943	46.895
108.124	29.379
