Time [s]	Current [nA]
0.000	33.897
1.000	50.695
2.000	52.695
3.000	47.895
4.065	52.577
5.001	48.551
6.001	50.295
7.000	52.247
8.000	47.695
9.067	51.822
10.000	49.298
11.065	52.014
12.000	48.658
13.000	52.395
14.000	48.395
15.000	50.995
16.001	50.495
17.001	50.695
18.001	52.095
19.001	45.595
20.001	51.795
21.001	50.395
22.001	50.195
23.001	50.395
24.060	47.965
25.000	49.357
26.058	47.299
27.001	52.169
28.001	49.695
29.001	45.995
30.001	49.595
31.001	52.395
32.060	47.021
33.001	53.236
34.001	49.695
35.064	48.959
36.002	49.569
37.002	45.295
38.002	49.595
39.002	53.395
40.002	45.495
41.002	51.695
42.001	51.246
43.001	45.795
44.001	49.795
45.001	50.195
46.002	50.595
47.002	46.495
48.002	49.195
49.002	49.595
50.002	48.895
51.002	49.795
52.002	52.295
53.002	48.095
54.002	50.895
55.002	50.795
56.003	49.895
57.003	51.395
58.065	49.242
59.079	49.604
60.002	49.187
61.002	50.300
62.002	49.900
63.002	47.500
64.064	49.058
65.002	36.354
66.061	11.709
67.002	19.979
68.002	32.300
69.002	40.700
70.005	43.968
71.002	45.938
72.002	51.600
73.002	51.100
74.002	53.100
75.002	52.500
76.002	46.800
77.001	54.454
78.001	50.800
79.001	46.900
80.001	51.700
81.001	47.700
82.001	51.000
83.067	52.251
84.001	48.715
85.001	52.000
86.001	47.500
87.001	50.100
88.001	54.400
89.001	50.500
90.001	46.300
91.001	53.300
92.001	47.700
93.070	51.076
94.001	49.517
95.000	50.951
96.000	52.200
97.000	47.900
98.000	49.500
99.000	51.700
100.000	50.400
101.065	50.986
102.045	34.898
