Time [s]	Current [nA]
0.000	14.420
1.021	53.570
1.939	61.541
2.938	59.053
4.004	59.656
4.938	56.311
5.997	57.178
6.939	58.487
7.939	58.694
9.005	60.125
10.005	57.994
11.030	59.701
12.001	54.063
12.939	59.269
13.939	58.994
14.939	57.994
15.940	57.794
16.940	59.994
18.005	57.365
18.940	56.465
19.991	55.656
20.939	61.175
21.939	59.394
22.939	55.294
23.939	59.794
24.939	58.894
25.940	58.394
26.999	55.141
27.940	59.505
28.940	60.594
29.940	58.394
30.940	54.595
31.940	58.494
32.940	58.494
33.998	57.083
34.940	58.911
35.941	59.294
36.998	55.245
37.940	61.140
38.940	54.795
40.037	59.338
40.940	57.912
41.940	58.494
42.997	54.772
43.940	60.970
44.994	56.541
46.003	60.311
46.998	52.960
47.999	57.637
48.941	61.034
49.941	53.395
50.941	58.194
51.941	60.494
52.941	58.194
53.941	57.794
54.940	57.552
55.941	54.895
57.000	57.029
57.941	55.999
58.941	56.894
59.941	57.094
60.941	56.894
61.999	56.044
63.000	59.335
64.000	58.194
65.001	57.537
66.001	56.451
66.942	57.167
67.942	53.795
68.942	56.694
69.942	56.894
70.942	55.894
71.942	56.594
72.941	58.853
73.941	53.495
74.941	56.894
76.008	58.718
77.004	57.223
77.942	56.711
78.942	53.595
80.014	57.923
80.999	51.771
82.000	56.138
82.942	59.760
83.942	58.294
84.942	53.695
85.943	56.794
87.067	45.725
