Time [s]	Current [nA]
0.000	29.062
1.000	62.894
2.000	60.494
3.000	59.294
4.000	59.594
5.000	59.394
6.001	60.394
7.001	56.094
8.058	56.475
9.001	61.606
10.001	57.894
11.001	60.094
12.063	58.186
13.000	56.878
14.000	58.294
15.000	58.094
16.001	58.694
17.001	60.894
18.063	57.810
19.001	56.924
20.001	57.794
21.065	59.299
22.001	58.114
23.063	57.810
24.001	56.391
25.059	55.907
26.002	61.288
27.060	55.193
28.002	64.962
29.064	58.657
30.001	57.625
31.001	58.194
32.001	58.294
33.001	60.294
34.001	54.895
35.072	62.237
36.002	57.736
37.002	58.294
38.002	58.894
39.002	55.594
40.002	61.594
41.002	60.494
42.002	58.794
43.002	58.594
44.002	60.794
45.002	53.695
46.003	61.994
47.003	59.494
48.002	58.553
49.002	59.694
50.002	56.494
51.002	61.194
52.002	60.294
53.002	58.494
54.002	58.994
55.101	54.548
56.003	67.177
57.003	55.794
58.003	59.794
59.060	55.529
60.003	62.772
61.062	57.879
62.003	59.718
63.003	59.494
64.003	57.994
65.002	58.553
66.003	58.394
67.058	57.625
68.003	58.407
69.003	59.394
70.003	58.194
71.003	58.394
72.003	61.294
73.003	55.095
74.003	59.094
75.003	59.494
76.004	58.594
77.059	55.634
78.063	60.253
79.004	59.399
80.004	59.794
81.004	57.694
82.060	55.297
83.003	63.832
84.003	55.494
85.059	41.892
