Time [s]	Current [nA]
0.000	26.133
1.000	55.594
2.000	50.295
3.000	53.395
4.000	52.395
5.001	52.295
6.001	49.095
7.063	55.456
8.076	51.821
9.001	50.590
10.001	50.895
11.001	51.595
12.001	53.395
13.001	49.195
14.001	52.995
15.002	50.995
16.001	50.546
17.001	48.495
18.001	52.095
19.001	53.695
20.001	51.095
21.001	49.795
22.001	49.495
23.001	46.995
24.001	52.195
25.002	50.395
26.002	50.595
27.002	50.495
28.002	46.495
29.002	52.095
30.002	51.695
31.002	49.795
32.002	49.395
33.002	48.995
34.058	48.669
35.002	49.518
36.002	50.895
37.002	49.495
38.060	46.782
39.002	47.448
40.002	50.895
41.002	49.995
42.002	45.695
43.002	48.595
44.002	48.395
45.003	49.995
46.003	46.495
47.003	49.195
48.003	49.195
49.003	48.395
50.003	48.695
51.002	50.045
52.060	47.443
53.002	46.598
54.002	48.195
55.003	47.195
56.003	49.095
57.003	49.195
58.003	43.796
59.003	48.395
60.003	46.995
61.003	47.295
62.003	49.095
63.003	49.295
64.003	43.696
65.003	47.795
66.004	46.695
67.004	49.795
68.004	48.995
69.068	46.518
70.003	45.343
71.008	46.264
72.003	48.739
73.003	48.495
74.003	44.896
75.003	48.395
76.004	47.595
77.004	47.895
78.004	44.096
79.004	49.795
80.004	49.295
81.004	46.995
82.004	47.695
83.062	44.703
84.066	48.402
85.004	47.863
86.004	44.140
87.004	47.195
88.004	47.495
89.004	47.095
90.004	49.795
91.004	45.695
92.004	48.995
93.004	49.095
94.004	48.795
95.004	49.895
96.005	45.795
97.005	48.395
98.005	48.595
99.005	47.195
100.005	47.195
101.005	48.795
102.076	35.104
