Time [s]	Current [nA]
0.000	11.682
1.061	47.498
2.000	47.386
3.000	47.595
4.000	46.895
5.000	46.795
6.001	46.495
7.001	44.896
8.001	48.895
9.001	47.495
10.063	43.969
11.001	49.888
12.000	44.040
13.056	45.639
14.087	50.140
15.000	45.121
16.001	45.295
17.001	46.595
18.015	47.727
19.001	45.432
20.001	46.295
21.001	45.995
22.001	46.395
23.001	44.196
24.001	47.895
25.001	48.095
26.064	45.005
27.002	50.421
28.002	46.895
29.001	44.540
30.001	48.495
31.001	47.095
32.001	42.396
33.001	50.995
34.001	45.395
35.001	48.495
36.002	45.095
37.002	47.695
38.002	47.195
39.002	47.695
40.002	49.195
41.064	46.794
42.002	45.518
43.002	47.195
44.002	47.295
45.002	42.296
46.003	48.695
47.002	48.344
48.002	47.095
49.002	41.896
50.002	46.395
51.057	45.019
52.002	50.260
53.002	41.696
54.002	45.895
55.002	46.195
56.003	45.695
57.065	45.099
58.003	45.838
59.003	45.795
60.003	45.595
61.003	45.295
62.003	46.895
63.003	42.896
64.002	45.941
65.002	45.795
66.003	45.895
67.003	45.695
68.003	47.395
69.003	43.196
70.003	45.295
71.003	43.696
72.003	44.096
73.003	46.795
74.003	40.696
75.003	47.195
76.004	45.695
77.004	45.495
78.004	44.796
79.004	45.695
80.004	42.096
81.004	44.995
82.003	43.839
83.065	46.417
84.003	44.665
85.096	41.022
86.004	47.352
87.004	44.696
88.004	44.296
89.061	42.664
90.004	44.746
91.004	46.695
92.004	45.395
93.004	45.195
94.004	45.295
95.004	41.396
96.005	47.695
97.005	46.795
98.005	45.695
99.004	45.341
100.004	45.295
101.004	42.696
102.004	46.495
103.004	40.996
104.004	44.696
105.004	44.796
106.005	45.895
107.005	46.795
108.005	42.896
109.070	43.658
