Time [s]	Current [nA]
0.000	18.244
1.000	43.496
2.000	45.095
3.000	44.296
4.000	44.196
5.000	44.396
6.001	43.896
7.001	46.095
8.001	45.395
9.001	45.095
10.001	44.696
11.001	37.296
12.001	11.799
13.001	16.398
14.066	26.195
15.001	30.906
16.002	35.496
17.002	42.996
18.001	43.139
19.001	45.495
20.001	45.096
21.057	42.609
22.001	48.724
23.091	42.014
24.054	42.675
25.063	44.242
26.002	46.215
27.002	42.996
28.002	40.896
29.002	44.196
30.002	42.896
31.002	42.296
32.002	41.896
33.002	38.896
34.002	43.096
35.001	43.839
36.002	39.196
37.002	40.896
38.068	42.116
39.002	41.538
40.002	39.196
41.002	42.096
42.002	41.196
43.002	40.496
44.002	41.396
45.002	43.596
46.003	38.996
47.003	41.896
48.003	40.596
49.003	42.496
50.003	43.596
51.003	48.595
52.003	45.995
53.002	46.142
54.002	45.995
55.002	46.095
56.003	43.996
57.003	47.795
58.003	46.195
59.003	46.295
60.003	45.995
61.003	44.196
62.003	46.895
63.003	41.996
64.003	45.095
65.003	45.095
66.004	44.696
67.004	46.495
68.069	43.658
69.004	43.097
70.003	44.240
71.003	44.396
72.003	45.095
73.004	45.050
74.003	42.138
75.003	45.195
76.004	43.296
77.004	43.496
78.065	43.445
79.062	40.417
80.066	43.422
81.004	41.787
82.004	42.896
83.004	43.396
84.066	40.862
85.004	43.066
86.005	41.996
87.005	41.696
88.058	38.838
89.004	45.344
90.066	41.521
91.004	40.081
92.004	40.796
93.004	40.696
94.004	39.996
95.070	40.465
96.005	40.852
97.005	40.596
98.067	37.943
99.005	43.173
100.005	38.496
101.063	40.733
102.082	39.937
103.005	40.516
104.005	39.896
105.004	39.936
106.005	41.396
107.005	37.696
108.005	39.296
109.005	39.496
110.005	39.696
111.005	41.196
112.074	39.285
113.005	37.912
114.005	39.196
115.005	38.696
116.068	36.531
117.006	38.376
118.006	39.896
119.006	38.296
120.019	18.162
