Time [s]	Current [nA]
0.000	59.212
1.000	61.212
2.000	66.613
3.003	64.654
3.999	60.153
4.999	64.213
5.999	63.713
7.058	62.619
7.998	64.306
8.998	64.413
9.998	62.312
10.997	62.875
11.997	65.613
12.996	58.012
13.996	65.813
14.996	62.512
15.996	62.412
16.996	62.112
17.995	65.013
18.995	59.612
19.995	63.113
21.052	58.952
21.995	65.549
22.994	64.813
23.994	57.612
24.994	66.013
25.994	62.412
26.994	61.612
27.993	61.412
28.992	64.277
29.992	58.912
30.992	62.813
31.992	62.112
32.991	62.112
33.991	62.212
34.991	64.013
35.991	58.612
36.991	63.713
37.990	61.812
38.990	61.012
39.990	63.713
40.990	58.612
41.990	62.813
42.989	61.712
43.989	61.312
44.989	61.612
45.988	58.670
46.988	64.013
47.987	62.012
48.987	60.212
50.043	57.398
50.987	66.645
51.987	57.912
52.986	62.312
53.986	63.413
54.986	62.813
55.986	62.512
56.986	58.012
57.985	63.713
58.997	61.574
59.985	57.501
60.985	61.712
61.985	64.113
62.984	63.313
63.983	57.469
64.983	62.713
65.983	62.012
66.983	62.112
68.041	61.202
68.982	63.137
69.982	64.013
70.982	62.012
71.982	61.712
72.981	63.113
73.981	55.811
74.981	63.913
75.981	62.012
76.981	60.712
77.980	60.812
78.980	63.713
80.000	41.577
