Time [s]	Current [nA]
0.000	12.141
0.999	61.073
1.999	58.812
2.998	58.212
3.998	60.512
4.998	53.011
5.998	60.412
6.998	59.112
7.997	57.612
8.997	57.411
9.997	59.812
10.997	54.911
11.997	58.112
12.996	57.311
13.996	58.112
14.996	54.111
16.085	58.873
16.996	60.715
17.994	58.771
18.994	58.512
19.994	58.712
20.994	55.211
21.994	60.412
22.993	53.611
23.993	57.011
24.993	62.212
25.993	52.510
26.993	60.312
27.992	59.912
28.992	53.011
29.992	56.511
30.992	61.912
31.992	54.511
32.991	59.012
34.053	54.531
34.991	55.128
35.990	62.375
36.990	57.612
38.047	51.806
38.989	62.221
39.989	52.210
40.989	56.211
41.989	56.011
42.988	57.912
43.988	58.212
45.001	56.477
45.988	53.101
47.042	53.616
47.987	59.737
48.987	58.512
49.987	53.811
50.987	57.011
51.987	56.311
52.985	55.867
53.985	57.912
54.985	51.810
55.985	57.111
56.985	57.111
57.984	55.911
59.038	52.382
59.984	61.006
60.984	53.311
62.042	53.319
63.046	55.633
63.983	58.923
64.983	52.010
65.983	55.311
66.983	57.812
68.039	53.085
68.982	58.442
69.982	55.411
71.040	53.981
71.981	56.334
72.980	56.111
73.980	54.611
74.980	54.411
76.054	52.245
76.980	55.519
77.979	57.211
78.979	55.811
79.979	54.811
80.979	55.211
81.979	57.311
82.978	52.811
83.978	56.111
84.978	54.411
85.978	54.511
86.978	54.511
88.041	54.992
88.976	19.148
