Time [s]	Current [nA]
0.000	26.329
1.015	39.897
2.000	38.169
3.000	40.896
4.062	37.849
5.076	38.890
6.066	40.804
7.055	37.610
8.005	42.943
9.082	37.136
10.000	39.321
11.062	41.427
12.000	37.949
13.002	40.914
14.009	36.739
15.000	39.653
16.001	39.596
17.001	39.196
18.001	40.896
19.088	38.083
20.001	39.317
21.001	40.696
22.059	37.520
23.072	39.285
24.001	40.792
25.064	38.791
26.002	42.426
27.001	39.636
28.001	39.696
29.001	37.696
30.001	39.996
31.003	40.914
32.001	36.670
33.001	39.396
34.001	39.396
35.001	41.096
36.013	39.858
37.002	37.003
38.002	39.796
39.002	40.096
40.092	37.336
41.006	44.197
42.002	37.848
43.063	38.168
44.001	42.107
45.001	40.396
46.002	38.096
47.002	41.496
48.015	40.075
49.012	39.916
50.002	36.562
51.002	39.496
52.002	41.296
53.010	40.770
54.002	37.496
55.002	39.296
56.003	39.396
57.003	40.996
58.064	38.922
59.003	37.909
60.003	40.496
61.064	41.372
62.002	37.523
63.002	40.896
64.002	37.696
65.002	39.396
66.061	21.453
67.003	11.676
68.059	17.517
69.003	24.468
70.003	31.797
71.003	34.997
72.003	41.196
73.003	41.596
74.003	39.696
75.003	43.696
76.068	39.564
77.014	44.287
78.004	38.178
79.003	42.038
80.079	38.100
81.003	42.312
82.068	42.437
83.003	39.247
84.003	40.996
85.003	42.096
86.067	40.447
87.004	39.270
88.060	38.064
89.004	42.369
90.095	37.027
91.065	43.295
92.067	41.413
93.004	39.484
94.062	38.181
95.007	42.218
96.005	38.411
97.007	41.413
98.008	39.856
99.069	38.356
100.070	39.656
101.004	38.433
102.059	39.048
103.013	43.392
104.004	37.534
105.004	39.396
106.005	39.596
107.005	41.496
108.019	41.022
109.088	37.601
110.005	40.127
111.005	40.296
112.067	40.956
113.005	39.975
114.004	37.934
115.004	40.396
116.005	40.096
117.005	40.496
118.005	38.196
119.005	39.696
120.005	41.296
121.005	40.296
122.005	39.796
123.005	39.996
124.067	38.791
125.005	39.442
126.062	38.159
127.061	39.636
128.018	19.329
