Time [s]	Current [nA]
0.000	6.007
1.000	44.496
2.000	38.896
3.000	43.196
4.000	37.996
5.001	41.096
6.001	44.796
7.001	38.096
8.001	42.996
9.001	42.996
10.001	38.096
11.001	41.496
12.001	44.995
13.064	41.012
14.001	41.298
15.014	41.794
16.001	38.699
17.063	43.216
18.001	39.228
19.001	42.396
20.001	39.396
21.001	41.696
22.001	40.896
23.001	40.996
24.001	42.096
25.002	37.996
26.058	40.147
27.002	43.640
28.058	38.727
29.002	43.216
30.002	42.396
31.065	41.012
32.059	37.924
33.001	43.732
34.001	41.196
35.061	40.600
36.002	39.954
37.002	42.996
38.002	41.196
39.002	40.996
40.002	41.596
41.061	40.695
42.002	41.654
43.002	41.696
44.059	38.691
45.003	43.474
46.003	41.796
47.003	39.096
48.003	42.396
49.061	39.505
50.003	42.777
51.002	40.837
52.002	42.296
53.002	38.896
54.002	41.696
55.002	40.896
56.059	38.254
57.003	43.216
58.003	39.496
59.003	41.996
60.003	40.796
61.003	40.496
62.003	40.896
63.003	42.096
64.065	40.486
65.089	40.661
66.004	40.215
67.004	41.196
68.003	40.536
69.003	38.396
70.003	42.596
71.003	37.996
72.003	40.296
73.003	40.596
74.003	42.096
75.003	41.596
76.071	38.422
77.004	40.725
78.004	40.696
79.004	40.696
80.004	42.196
81.069	39.527
82.069	41.496
83.004	39.461
84.004	40.596
85.004	42.296
86.004	37.534
87.004	42.296
88.004	41.396
89.004	41.696
90.004	40.696
91.004	38.496
92.062	39.977
93.004	40.123
94.004	40.596
95.061	41.568
96.005	40.250
97.005	42.296
98.005	38.996
99.005	40.696
100.064	41.733
101.064	40.296
102.059	39.494
103.064	41.886
104.004	40.315
105.004	40.796
106.005	40.996
107.005	41.496
108.005	43.396
109.005	39.496
110.005	42.096
111.005	40.996
112.067	43.028
113.064	39.214
114.005	41.866
115.005	41.696
116.006	42.096
117.006	42.196
118.065	39.467
119.006	41.866
120.006	43.596
121.067	39.676
122.005	40.081
123.058	0.285
