Time [s]	Current [nA]
0.000	21.229
1.057	40.114
2.000	46.660
3.000	40.300
4.000	43.300
5.000	41.700
6.000	41.700
7.000	39.600
8.000	42.300
9.000	44.200
10.063	39.135
11.062	42.042
11.999	44.824
12.999	39.700
13.999	42.900
14.999	42.300
15.999	41.200
16.999	41.000
18.006	41.609
18.999	38.671
19.999	43.100
20.999	41.300
21.999	40.800
22.999	40.800
23.999	38.900
25.054	40.284
25.999	44.127
26.999	40.600
27.999	41.100
28.998	40.941
30.063	39.906
31.055	38.609
32.060	40.796
32.998	44.136
33.998	38.000
34.998	42.900
36.005	42.999
37.070	39.155
37.998	40.086
38.998	41.399
40.060	42.557
40.998	41.680
42.055	40.583
42.998	40.611
44.060	42.691
45.064	41.430
45.999	41.386
47.072	39.977
47.998	42.004
49.063	42.907
49.998	39.889
50.998	41.196
51.998	42.596
52.998	42.796
53.999	38.296
54.999	41.096
55.999	40.596
56.999	42.396
57.999	41.696
58.999	39.996
60.063	42.759
61.060	41.220
62.059	41.037
62.999	41.379
63.999	43.339
64.999	39.196
65.999	41.496
66.999	41.196
67.999	41.696
69.061	41.051
69.999	42.000
71.063	42.759
72.060	41.220
72.999	39.826
74.000	42.896
75.000	43.096
76.000	38.196
77.000	41.496
78.000	41.096
79.085	41.931
80.062	40.323
81.061	43.839
81.999	40.508
83.064	42.625
84.000	39.889
85.057	40.583
86.000	41.459
87.077	42.243
88.000	40.408
89.000	40.696
90.000	41.496
91.000	43.096
92.000	39.496
93.000	41.596
94.001	40.996
95.001	40.896
96.001	42.196
97.001	42.396
98.001	38.296
99.000	41.237
100.000	40.996
101.000	40.896
102.000	42.896
103.000	42.996
104.001	38.396
105.001	41.096
106.001	41.296
107.001	42.896
108.081	38.607
109.001	42.604
110.001	41.396
111.001	41.396
112.001	41.396
113.001	42.396
114.002	42.796
115.002	38.296
116.002	41.196
117.001	40.837
118.001	41.196
119.001	41.996
120.061	40.468
121.068	22.540
