Time [s]	Current [nA]
0.000	32.511
0.942	34.922
1.942	37.696
2.942	35.796
3.942	35.996
4.942	36.096
5.943	34.197
7.000	35.190
7.943	38.384
8.943	35.996
9.942	36.032
10.942	33.097
11.942	37.796
12.942	37.296
13.942	33.397
14.942	35.996
15.943	35.596
16.943	37.096
17.943	34.397
18.943	36.096
19.943	35.696
20.943	35.996
21.943	35.796
22.944	37.659
23.943	34.031
25.000	34.623
25.944	37.960
26.944	36.096
27.943	34.131
28.943	37.696
29.943	36.396
30.943	36.496
31.943	36.296
32.943	35.996
33.943	34.397
34.943	37.796
35.944	36.396
36.944	36.196
37.944	35.896
38.944	33.997
40.026	38.351
40.944	35.073
41.944	36.196
43.007	34.333
44.003	36.041
44.943	36.698
45.944	37.096
46.944	33.097
47.944	36.496
48.944	35.496
49.944	36.996
50.944	36.096
51.944	33.897
53.009	37.837
53.944	35.184
55.001	34.528
55.945	36.900
56.945	37.196
58.003	34.212
58.945	38.000
60.003	33.740
61.024	35.648
61.945	36.696
62.944	37.334
63.944	36.396
64.944	32.997
65.945	36.196
66.945	37.396
67.945	34.397
68.945	36.796
69.945	36.396
70.945	35.796
71.945	35.496
72.945	37.696
73.945	34.297
74.945	36.496
76.011	37.085
76.946	34.542
78.001	35.162
79.004	37.185
79.945	35.278
81.010	37.930
81.945	35.077
82.945	36.496
83.945	37.796
84.945	34.497
85.946	36.896
86.946	35.996
87.946	36.396
88.946	34.497
89.946	36.896
90.946	37.696
91.946	36.496
92.946	33.197
94.006	36.883
94.946	36.060
95.947	34.597
97.011	38.248
98.010	36.233
98.946	34.826
99.946	37.496
101.025	34.010
101.946	37.456
102.946	36.196
104.004	33.929
105.004	36.196
105.951	39.214
106.947	34.836
107.947	36.296
108.947	36.096
109.947	35.696
110.947	35.996
112.007	35.091
112.947	35.635
113.947	36.296
114.946	36.633
115.947	36.196
116.947	34.297
117.947	37.396
118.947	36.596
119.947	36.796
120.947	36.296
121.947	36.296
123.017	35.230
123.947	37.201
124.947	36.896
125.948	36.496
127.009	34.587
127.948	36.525
128.948	37.696
129.948	36.896
130.948	36.896
131.948	36.696
133.001	34.659
133.947	36.360
134.947	37.696
135.948	34.097
136.948	27.597
137.948	9.499
138.948	15.398
140.203	14.023
