Time [s]	Current [nA]
0.000	19.389
1.000	38.496
2.000	38.496
3.000	34.797
4.053	37.698
4.999	41.645
6.000	34.797
7.000	40.796
8.000	37.796
9.000	35.896
10.053	37.888
11.000	36.427
12.000	37.996
13.000	40.896
14.000	34.397
15.000	39.396
16.001	39.296
17.001	34.397
18.001	40.696
19.001	37.696
20.001	35.996
21.001	39.396
22.000	37.934
23.000	35.096
24.000	37.896
25.066	39.057
26.001	38.285
27.059	36.953
28.001	36.727
29.001	37.296
30.001	40.696
31.001	36.096
32.001	38.696
33.001	38.896
34.063	36.249
35.001	34.645
36.067	11.454
37.002	14.544
38.061	20.583
39.001	26.593
40.050	31.837
41.001	37.325
42.001	36.696
43.001	40.496
44.001	41.596
45.061	37.484
46.058	38.913
47.002	37.814
48.064	41.898
49.002	38.589
50.002	35.996
51.002	38.596
52.002	38.996
53.095	39.246
54.056	38.394
55.002	39.002
56.063	40.279
57.002	37.270
58.002	38.996
59.002	39.996
60.002	39.696
61.002	35.196
62.002	39.396
63.002	38.696
64.002	38.996
65.002	36.396
66.003	39.096
67.003	38.696
68.003	38.196
69.003	38.396
70.003	39.796
71.072	37.321
72.003	36.946
73.060	36.893
74.002	40.866
75.002	38.596
76.003	39.596
77.003	36.196
78.003	38.496
79.003	37.896
80.003	37.796
81.003	39.296
82.003	34.897
83.003	39.996
84.003	38.396
85.003	37.396
86.060	36.076
87.004	42.051
88.004	36.096
89.004	38.796
90.004	37.596
91.004	37.796
92.078	35.937
93.003	41.726
94.003	36.296
95.003	38.596
96.004	38.296
97.004	38.196
98.004	39.196
99.004	36.196
100.004	38.596
101.004	37.896
102.004	37.596
103.004	37.796
104.004	36.096
105.004	39.496
106.005	38.896
107.063	35.630
108.059	37.546
109.004	41.795
110.004	35.896
111.087	39.701
112.004	37.728
113.004	37.996
114.004	38.096
115.004	36.296
116.005	39.396
117.014	37.855
118.005	34.305
119.005	37.396
120.005	39.096
121.064	37.296
122.005	36.978
123.005	37.796
124.005	37.196
125.005	40.596
126.006	35.796
127.005	39.536
128.005	34.897
129.005	36.896
130.064	38.240
131.005	37.935
132.005	38.796
133.011	37.968
134.059	10.877
