Time [s]	Current [nA]
0.000	7.260
1.084	37.358
2.000	42.354
3.000	40.996
4.000	39.896
5.000	39.996
6.003	41.712
7.002	41.637
8.001	37.234
9.003	40.016
10.002	40.236
11.001	40.837
12.000	42.138
13.069	39.659
14.064	41.503
15.000	38.778
16.062	41.655
17.002	40.315
18.002	42.096
19.001	37.334
20.007	40.155
21.065	42.245
22.088	39.781
23.001	42.055
24.003	37.920
25.066	41.992
26.002	38.458
27.064	41.427
28.005	40.379
29.009	41.629
30.004	36.981
31.001	41.220
32.001	40.396
33.066	41.686
34.001	40.745
35.063	39.487
36.063	40.296
37.003	38.081
38.003	39.596
39.002	41.137
40.091	37.278
41.002	40.391
42.063	40.618
43.063	38.796
44.063	39.096
45.005	38.956
46.007	40.955
47.002	36.981
48.002	39.496
49.002	39.296
50.006	39.140
51.002	39.956
52.062	39.430
53.002	38.507
54.004	39.417
55.003	40.036
56.005	41.255
57.003	41.379
58.003	36.996
59.005	39.317
60.009	43.223
61.004	36.378
62.003	41.637
63.009	40.453
64.063	38.516
65.002	38.228
66.003	39.696
67.005	41.114
68.060	39.427
69.006	38.157
70.003	39.916
71.006	39.179
72.003	39.615
73.006	40.973
74.006	41.696
75.003	36.907
76.004	39.796
77.004	39.196
78.004	41.196
79.004	40.996
80.011	40.016
81.065	38.421
82.063	39.575
83.003	38.720
84.003	41.496
85.008	41.886
86.004	37.383
87.065	41.466
88.004	38.761
89.004	41.696
90.004	40.896
91.066	39.073
92.065	41.137
93.004	39.080
94.007	40.375
95.005	42.180
96.011	42.384
97.005	37.723
98.007	39.717
99.007	40.496
100.011	40.932
101.074	39.037
102.068	42.752
103.004	39.633
104.007	39.976
105.004	40.718
106.008	41.970
107.005	42.222
108.005	37.496
109.005	40.196
110.069	41.443
111.006	38.950
112.005	42.839
113.011	41.646
114.005	38.125
115.005	40.796
116.006	40.596
117.007	41.454
118.006	41.838
119.005	36.633
120.005	40.496
121.007	39.617
122.005	40.477
123.005	41.896
124.072	39.265
125.081	26.188
