Time [s]	Current [nA]
0.000	4.825
1.006	38.764
2.000	35.811
3.000	39.696
4.000	39.696
5.000	35.496
6.001	38.196
7.000	37.934
8.065	39.151
9.000	38.499
10.059	37.768
11.000	37.935
12.064	39.470
13.000	37.176
14.000	39.496
15.000	38.296
16.001	36.096
17.001	39.196
18.001	38.096
19.001	37.896
20.001	36.096
21.066	40.559
22.001	37.109
23.001	38.096
24.001	37.996
25.095	35.404
26.001	39.731
27.001	39.896
28.001	38.496
29.001	38.096
30.001	38.096
31.001	35.996
32.001	39.496
33.001	38.396
34.001	37.496
35.001	37.896
36.002	37.796
37.002	36.296
38.002	39.496
39.064	36.155
40.002	39.868
41.002	38.096
42.001	36.233
43.001	38.996
44.001	38.296
45.001	38.496
46.002	38.096
47.002	37.796
48.002	35.596
49.002	38.796
50.002	37.696
51.002	37.696
52.002	37.596
53.002	36.096
54.002	38.696
55.002	39.196
56.003	38.996
57.003	38.596
58.010	38.725
59.003	36.754
60.002	39.335
61.002	35.096
62.002	38.096
63.002	38.196
64.002	39.296
65.002	37.096
66.003	36.096
67.003	37.996
68.003	38.496
69.003	37.996
70.003	36.196
71.003	39.196
72.003	38.596
73.003	37.996
74.003	38.396
75.003	38.496
76.004	35.796
77.003	39.836
78.003	35.396
79.064	39.204
80.003	36.738
81.003	39.496
82.003	36.196
83.003	38.596
84.003	38.296
85.003	37.796
86.004	37.796
87.004	39.696
88.004	35.596
89.004	37.996
90.069	38.775
91.004	35.291
92.004	38.296
93.004	34.597
94.004	36.896
95.003	37.334
96.004	36.996
97.004	36.896
98.004	38.096
99.004	34.897
100.069	38.306
101.004	35.398
102.004	36.596
103.004	38.396
104.004	38.196
105.004	34.697
106.005	37.296
107.005	37.496
108.060	36.205
109.065	39.200
110.005	37.124
111.005	37.796
112.062	35.001
113.004	39.911
114.004	38.996
115.004	34.297
116.005	39.896
117.005	38.396
118.005	37.996
119.005	37.896
120.005	36.296
121.063	37.425
122.005	40.654
123.005	37.896
124.068	35.744
125.005	40.978
126.071	37.273
127.006	38.499
128.006	38.896
129.006	38.396
130.005	39.035
131.005	37.296
132.005	40.296
133.065	4.434
