Time [s]	Current [nA]
0.000	50.095
1.000	53.495
2.000	54.095
3.000	53.395
4.061	52.115
5.000	51.859
6.001	53.595
7.001	53.695
8.001	54.795
9.060	51.175
10.001	51.642
11.001	51.995
12.001	52.195
13.000	53.148
14.000	53.795
15.000	49.195
16.066	53.610
17.001	51.546
18.001	53.595
19.001	56.294
20.001	50.795
21.067	54.873
22.067	52.395
23.065	51.097
24.001	49.461
25.001	54.795
26.002	50.095
27.002	54.195
28.002	52.795
29.002	53.395
30.056	52.177
31.058	50.893
32.001	57.682
33.001	53.295
34.001	53.095
35.001	53.395
36.059	51.177
37.002	53.229
38.002	55.194
39.002	53.295
40.002	53.795
41.061	52.308
42.002	53.130
43.065	51.829
44.064	54.049
45.002	56.604
46.064	49.948
47.003	53.349
48.002	54.749
49.002	53.495
50.002	52.895
51.002	52.895
52.002	49.395
53.002	53.095
54.002	56.194
55.002	52.695
56.003	51.895
57.064	48.723
58.003	53.030
59.003	53.195
60.003	53.395
61.003	52.895
62.003	51.995
63.003	46.995
64.003	54.495
65.003	54.195
66.003	52.447
67.003	52.195
68.003	51.695
69.003	49.595
70.003	54.895
71.003	53.195
72.012	51.729
73.003	53.476
74.003	53.295
75.003	50.195
76.004	54.595
77.004	51.895
78.004	51.495
79.004	52.595
80.004	49.695
81.059	52.317
82.004	55.973
83.003	53.949
84.065	50.089
85.003	57.137
86.004	50.595
87.004	55.094
88.004	54.595
89.004	52.795
90.004	53.495
91.004	50.795
92.060	52.078
93.004	58.151
94.057	38.648
