Time [s]	Current [nA]
0.000	0.165
1.000	54.095
2.094	49.904
2.999	54.359
3.999	54.295
4.999	53.495
6.000	52.495
7.000	53.595
8.000	55.194
9.000	50.195
10.000	53.295
11.000	52.295
12.000	53.295
13.088	54.590
14.000	48.022
15.000	53.795
16.001	51.995
17.001	51.795
18.001	52.595
19.001	53.595
20.064	52.017
21.000	49.568
22.000	51.495
23.000	50.695
24.000	52.095
25.000	54.695
26.064	52.394
27.001	51.329
28.001	52.295
29.001	51.895
30.001	53.795
31.001	47.795
32.001	53.595
33.001	52.495
34.056	49.758
35.001	56.079
36.002	49.395
37.002	53.295
38.001	52.647
39.001	52.695
40.001	51.895
41.001	53.795
42.001	46.995
43.001	54.095
44.001	51.995
45.058	48.385
46.002	54.444
47.002	52.995
48.064	51.031
49.058	46.474
50.002	51.478
51.002	50.895
52.002	52.195
53.059	50.515
54.002	53.335
55.002	51.995
56.002	51.747
57.002	51.995
58.002	54.795
59.002	49.195
60.002	52.695
61.002	52.695
62.002	52.695
63.002	52.495
64.002	49.995
65.002	54.195
66.003	52.195
67.003	51.495
68.060	48.340
69.003	57.470
70.003	49.895
71.003	52.495
72.003	52.495
73.002	50.846
74.002	51.195
75.002	53.095
76.003	49.895
77.059	50.090
78.003	54.867
79.003	51.595
80.003	53.695
81.003	47.795
82.003	53.095
83.003	51.795
84.003	50.195
85.003	50.595
86.004	54.095
87.004	49.095
88.004	53.095
89.004	51.695
90.004	53.695
91.003	55.050
92.003	47.895
93.003	53.795
94.003	51.895
95.003	51.595
96.004	52.295
97.004	6.099
