Time [s]	Current [nA]
0.000	46.495
1.000	54.095
2.000	54.595
3.057	51.177
4.000	57.788
5.000	55.050
6.000	51.895
7.062	58.563
8.054	49.894
9.000	56.548
10.000	54.295
11.000	55.694
12.000	49.695
13.000	55.894
14.000	54.495
15.063	50.277
16.057	53.616
17.001	60.163
18.001	51.995
19.001	54.695
20.055	50.185
21.001	55.914
22.001	53.395
23.000	50.546
24.000	55.194
25.001	54.695
26.001	53.595
27.056	50.232
28.001	58.618
29.001	50.295
30.001	53.495
31.001	52.895
32.001	52.695
33.001	53.595
34.060	51.931
35.002	53.555
36.002	52.995
37.002	52.295
38.002	53.095
39.057	51.938
40.001	52.007
41.001	53.795
42.059	50.373
43.001	54.984
44.065	54.224
45.001	52.345
46.002	49.995
47.002	53.695
48.002	52.795
49.002	53.495
50.002	51.395
51.002	53.695
52.002	54.395
53.059	50.421
54.059	52.895
55.055	52.357
56.003	58.327
57.002	57.252
58.002	61.394
59.002	60.994
60.058	57.570
61.002	66.307
62.002	56.194
63.002	62.494
64.059	58.272
65.002	64.469
66.003	60.994
67.003	63.694
68.003	58.094
69.003	61.494
70.061	57.083
71.003	63.688
72.003	60.294
73.062	59.295
74.003	60.249
75.002	60.655
76.003	59.194
77.003	59.794
78.059	58.706
79.003	58.787
80.003	59.794
81.003	58.994
82.003	58.094
83.003	58.194
84.003	60.694
85.003	55.194
86.004	59.094
87.004	57.294
88.004	28.397
89.004	25.297
90.004	38.096
91.079	19.533
