Time [s]	Current [nA]
0.000	19.842
1.000	57.294
1.943	59.167
2.943	52.995
4.007	59.862
4.942	54.326
5.943	54.795
6.943	55.094
8.029	52.021
9.002	58.576
10.007	58.203
10.943	53.734
11.943	54.895
12.943	54.895
13.943	56.094
14.943	50.495
16.001	51.272
16.944	56.622
17.944	53.995
19.029	55.663
19.944	49.394
20.944	55.394
21.943	54.549
22.943	54.195
23.943	54.695
24.943	55.994
25.944	51.595
26.944	54.195
27.944	53.795
28.944	53.595
29.944	53.895
30.944	56.194
31.944	51.895
32.999	51.559
34.000	53.142
34.944	58.045
35.945	55.694
37.011	53.559
37.945	51.387
38.944	52.347
39.944	52.095
40.944	52.595
41.944	54.795
42.944	50.095
44.001	50.326
44.944	55.774
45.945	52.095
46.945	54.195
48.035	49.720
49.002	50.564
49.945	55.668
50.945	51.695
51.998	49.473
52.945	57.333
53.945	50.695
54.945	53.295
55.946	51.495
56.945	51.847
57.945	53.595
58.945	48.995
59.945	53.895
60.945	51.295
61.945	51.195
62.945	52.195
63.945	53.195
64.945	49.095
65.946	51.895
66.946	50.595
67.946	50.695
68.946	50.695
69.946	48.695
70.946	52.095
71.946	51.995
72.998	49.235
73.945	54.271
74.945	51.595
75.946	48.995
76.946	52.095
77.946	53.195
78.946	51.895
80.001	49.853
80.946	52.693
81.946	54.195
82.946	52.695
83.946	51.295
84.946	51.295
85.947	53.695
86.947	47.895
87.947	53.595
88.947	52.595
89.947	50.395
90.946	51.146
91.946	53.495
92.946	48.995
93.946	52.595
94.946	10.199
