Time [s]	Current [nA]
0.000	22.072
1.000	44.995
2.000	44.996
3.062	48.112
4.000	44.665
5.001	40.896
6.001	44.096
7.000	48.444
8.000	40.996
9.000	45.795
10.000	42.096
11.000	44.596
12.000	44.196
13.000	47.995
14.000	42.196
15.060	43.338
16.060	45.195
17.001	42.079
18.001	47.995
19.001	40.496
20.056	43.977
21.001	48.567
22.001	41.496
23.001	44.396
24.001	44.596
25.000	46.242
26.001	46.395
27.075	42.454
28.063	45.441
29.054	44.193
30.053	44.240
31.063	45.837
32.060	41.420
33.062	44.507
34.060	44.585
35.001	42.291
36.002	46.095
37.002	45.995
38.002	45.096
39.002	41.696
40.002	44.296
41.002	43.796
42.063	47.026
43.001	43.599
44.001	41.096
45.001	44.096
46.063	45.613
47.002	43.446
48.002	44.796
49.002	41.296
50.002	44.496
51.002	43.796
52.002	47.395
53.002	41.396
54.002	45.895
55.058	41.702
56.003	45.816
57.003	43.796
58.003	41.196
59.003	45.195
60.002	42.138
61.002	44.196
62.002	43.696
63.002	43.596
64.002	45.495
65.002	45.395
66.003	40.596
67.003	44.696
68.062	46.360
69.003	43.779
70.003	47.995
71.003	42.596
72.060	46.542
73.003	42.520
74.003	48.295
75.003	42.996
76.004	47.395
77.003	40.136
78.003	49.195
79.003	47.295
80.003	46.395
81.003	50.995
82.003	51.995
83.003	46.795
84.057	51.418
85.003	53.166
86.004	48.695
87.004	53.095
88.005	51.343
89.004	46.442
90.064	52.165
91.004	48.612
92.004	52.495
93.004	52.995
94.004	47.295
95.003	45.041
96.004	23.398
97.004	29.897
98.004	38.896
99.004	45.395
100.004	44.096
101.004	49.995
102.063	52.497
103.004	51.111
104.004	52.295
105.004	48.195
106.005	51.995
107.005	56.194
108.074	51.445
109.005	50.586
110.005	27.397
