Time [s]	Current [nA]
0.000	10.146
1.000	43.496
2.000	39.796
3.000	42.096
4.000	41.396
5.001	42.296
6.060	40.411
7.001	42.291
8.001	42.096
9.058	38.785
10.001	43.792
11.001	41.896
12.001	38.996
13.058	40.393
14.000	44.051
15.001	40.896
16.001	41.496
17.001	42.096
18.001	38.996
19.084	42.101
20.063	37.483
21.001	43.386
22.001	40.996
23.053	40.205
24.001	41.241
25.002	41.896
26.002	41.096
27.002	41.296
28.002	39.196
29.002	42.296
30.002	42.596
31.060	38.938
32.001	44.310
33.001	41.496
34.001	39.396
35.002	43.296
36.002	42.196
37.002	41.696
38.002	41.696
39.002	39.196
40.092	43.207
41.002	42.523
42.061	39.751
43.002	44.841
44.002	42.096
45.003	39.996
46.003	43.196
47.003	42.496
48.003	41.596
49.060	39.542
50.002	45.855
51.002	38.396
52.002	43.896
53.002	41.696
54.002	41.496
55.003	41.996
56.003	39.596
57.003	43.596
58.067	40.691
59.003	44.654
60.003	42.396
61.003	42.296
62.003	39.796
63.003	43.996
64.061	39.977
65.003	45.112
66.003	42.338
67.003	43.396
68.003	40.396
69.003	22.298
70.003	14.099
71.003	21.498
72.003	28.897
73.003	32.497
74.068	40.278
75.003	42.242
76.004	43.996
77.004	43.796
78.004	41.196
79.060	42.609
80.004	46.076
81.066	41.239
82.004	42.213
83.066	44.158
84.003	43.219
85.003	43.996
86.004	39.496
87.064	43.486
88.004	40.741
89.004	44.196
90.004	42.796
91.004	40.396
92.004	43.096
93.004	42.296
94.064	44.052
95.004	42.336
96.005	43.796
97.065	41.317
98.005	40.528
99.005	42.396
100.005	43.296
101.004	44.040
102.004	40.696
103.004	42.496
104.004	42.396
105.004	42.196
106.005	44.096
107.061	41.378
108.005	41.733
109.005	41.896
110.005	41.996
111.005	41.796
112.005	43.996
113.005	39.796
114.005	42.696
115.005	41.896
116.064	44.041
117.006	42.246
118.056	42.281
119.005	40.881
120.005	42.296
121.071	43.054
122.005	5.032
