Time [s]	Current [nA]
0.000	24.749
0.940	47.655
1.997	47.867
2.940	52.699
3.940	47.995
4.997	46.069
5.997	48.343
6.941	47.241
7.940	50.445
8.999	47.682
9.940	47.710
10.940	51.995
11.940	48.295
12.940	46.095
13.940	48.495
14.995	47.483
15.941	46.979
16.941	47.995
18.003	51.125
18.941	50.315
19.941	52.095
21.000	48.059
21.997	49.744
23.000	49.945
23.941	49.198
24.945	51.588
25.941	48.739
26.941	51.195
27.941	50.295
28.941	50.295
29.941	51.995
30.941	47.895
31.941	51.295
32.997	47.722
33.941	52.961
34.941	50.395
36.001	50.137
36.942	50.154
37.942	51.495
38.942	50.795
39.942	50.795
41.003	48.817
41.942	50.900
42.941	50.045
43.941	51.495
44.941	50.595
45.942	49.895
47.007	49.479
47.942	50.369
48.954	50.291
49.942	46.352
50.942	49.795
51.942	51.895
52.942	46.995
53.942	50.495
54.942	50.595
55.943	49.295
57.006	52.111
57.943	49.408
59.005	49.618
59.943	48.289
60.942	49.244
61.942	50.095
62.942	46.795
63.942	49.995
64.942	51.195
65.943	50.295
66.943	49.595
68.004	46.555
68.943	49.516
69.943	51.095
70.943	49.995
71.943	49.595
72.943	49.295
74.025	46.576
74.943	49.233
75.944	50.995
76.944	49.095
77.943	49.144
78.943	49.295
79.943	46.495
80.943	50.595
81.943	49.095
83.002	45.793
84.005	48.849
84.943	47.010
85.944	50.395
86.944	50.295
87.944	44.796
88.944	49.095
89.944	47.895
90.944	49.995
91.944	45.995
92.944	48.495
93.944	48.195
94.944	47.895
96.002	45.407
96.944	52.861
97.944	45.195
98.944	48.095
99.944	47.095
100.944	47.395
102.001	12.960
