Time [s]	Current [nA]
0.000	30.997
1.000	47.195
2.000	51.295
3.061	46.838
4.000	47.280
5.001	43.696
6.000	47.142
7.000	47.195
8.000	48.495
9.000	48.095
10.000	45.395
11.000	47.295
12.000	46.795
13.000	47.095
14.000	48.495
15.001	48.595
16.063	45.193
17.001	45.624
18.001	46.795
19.001	47.295
20.001	49.095
21.001	49.395
22.001	43.996
23.000	51.646
24.000	47.495
25.000	45.495
26.001	49.195
27.010	47.666
28.001	43.386
29.001	46.895
30.001	47.395
31.001	49.695
32.001	48.595
33.001	44.196
34.001	47.395
35.002	46.795
36.002	48.795
37.059	46.258
38.086	46.733
39.002	47.594
40.063	48.911
41.001	44.772
42.001	48.195
43.001	44.896
44.001	47.895
45.001	46.395
46.002	46.195
47.002	48.795
48.002	43.996
49.002	47.895
50.002	47.495
51.002	46.595
52.002	46.995
53.002	48.695
54.063	46.178
55.052	42.405
56.003	48.681
57.003	46.895
58.002	48.143
59.002	42.596
60.002	48.595
61.002	47.095
62.002	46.095
63.002	46.395
64.002	48.295
65.002	43.896
66.003	46.595
67.003	45.995
68.003	45.795
69.003	47.795
70.003	46.095
71.003	43.796
72.062	43.811
73.003	35.703
74.003	14.199
75.002	22.320
76.003	28.297
77.003	36.496
78.003	38.996
79.003	44.896
80.003	46.995
81.003	44.296
82.003	48.095
83.003	46.695
84.003	46.695
85.003	46.695
86.004	47.495
87.004	43.696
88.079	47.530
89.004	44.968
90.004	45.795
91.059	43.313
92.063	46.708
93.003	46.378
94.003	46.495
95.003	45.695
96.004	45.795
97.004	46.795
98.004	42.996
99.004	45.795
100.004	47.295
101.004	45.995
102.004	45.895
103.066	45.382
104.004	44.665
105.004	41.596
106.005	44.896
107.062	46.637
108.005	45.489
109.005	45.495
110.004	0.601
