Time [s]	Current [nA]
0.000	20.665
1.000	41.896
2.000	40.896
3.000	41.296
4.060	39.996
4.999	41.742
6.058	39.977
7.000	44.051
8.000	41.796
9.000	38.496
10.000	44.995
11.000	45.295
12.000	43.796
13.000	42.696
14.000	42.396
15.000	40.496
16.001	44.995
17.001	39.396
18.001	42.896
19.001	42.996
20.001	42.496
21.000	45.241
22.065	42.249
23.000	42.028
24.000	43.296
25.000	43.296
26.001	44.896
27.001	40.396
28.001	42.896
29.001	42.996
30.056	40.944
31.001	45.498
32.001	44.796
33.063	42.557
34.001	41.360
35.061	40.411
36.002	45.585
37.061	41.450
38.002	41.122
39.001	43.339
40.001	42.796
41.001	42.196
42.060	40.317
43.001	42.929
44.001	44.296
45.001	42.596
46.002	41.996
47.002	42.396
48.065	41.200
49.002	41.405
50.002	44.096
51.002	42.696
52.058	40.147
53.002	44.911
54.002	44.396
55.065	42.274
56.002	41.405
57.002	42.296
58.002	42.496
59.002	42.796
60.002	40.896
61.002	43.996
62.002	42.696
63.002	41.996
64.002	41.796
65.006	43.820
66.003	40.257
67.003	42.196
68.003	42.096
69.003	41.796
70.072	39.753
71.003	42.960
72.065	41.145
73.003	45.198
74.061	39.883
75.002	45.479
76.003	40.096
77.003	43.096
78.081	39.050
79.003	42.078
80.003	42.196
81.003	42.096
82.003	43.696
83.003	40.396
84.065	43.875
85.003	39.975
86.004	42.196
87.004	43.796
88.083	40.126
89.004	42.124
90.004	42.996
91.003	41.738
92.003	41.596
93.061	41.395
94.003	42.034
95.003	43.096
96.004	41.696
97.004	41.396
98.004	42.796
99.004	42.096
100.004	39.596
101.004	41.896
102.061	38.974
103.061	40.996
104.004	45.489
105.004	39.396
106.005	41.896
107.005	40.696
108.005	40.996
109.004	42.038
110.004	38.596
111.004	41.896
112.004	41.496
113.004	40.996
114.004	41.096
115.004	38.996
116.005	42.696
117.005	40.696
118.005	40.996
119.123	17.351
