Time [s]	Current [nA]
0.000	15.300
0.936	58.968
2.023	54.088
2.936	58.921
3.936	57.494
4.936	57.994
5.937	58.094
6.937	54.994
7.937	60.794
8.937	57.694
9.998	53.058
10.936	60.868
11.936	52.595
12.936	59.694
13.936	59.594
14.936	53.395
15.937	57.294
16.937	56.194
17.937	59.294
18.937	53.695
19.937	57.594
20.937	56.494
21.937	56.894
22.937	56.594
23.937	59.594
25.003	55.904
25.938	56.204
26.994	55.203
27.937	61.394
28.937	55.294
29.937	60.294
30.937	57.494
31.937	58.894
32.937	57.294
33.937	52.795
34.937	59.694
35.938	60.394
36.998	55.843
37.938	54.888
38.938	59.294
39.938	63.394
40.946	63.287
41.938	56.446
42.938	62.394
43.938	61.594
44.937	62.056
45.938	64.494
46.938	58.594
47.938	62.994
48.938	62.094
49.938	61.394
50.938	63.994
51.938	62.394
52.938	58.694
53.938	62.994
55.004	64.534
55.939	59.737
56.939	64.594
57.939	59.194
58.939	63.194
59.939	61.994
60.939	61.894
61.939	63.094
62.938	58.353
63.938	63.894
64.938	62.894
65.998	58.918
66.939	65.775
67.939	58.794
68.939	64.394
70.002	59.072
71.000	62.419
71.939	59.312
72.939	61.294
73.939	64.794
74.939	58.694
75.940	62.094
77.003	63.493
77.940	59.012
78.940	58.294
79.939	63.857
80.939	61.694
81.939	62.094
82.939	61.194
84.082	40.066
