Time [s]	Current [nA]
0.000	25.534
1.000	62.894
2.000	56.994
3.060	61.975
4.000	57.335
5.001	59.594
6.001	61.294
7.001	62.294
8.001	55.394
9.001	59.694
10.001	59.494
11.001	59.994
12.000	62.156
13.000	61.994
14.000	55.794
15.001	59.594
16.001	59.594
17.001	61.994
18.001	58.994
19.001	56.894
20.001	59.894
21.001	59.794
22.001	59.394
23.001	61.694
24.001	61.694
25.063	57.864
26.002	57.715
27.002	60.294
28.002	61.794
29.002	62.694
30.001	57.252
31.001	61.294
32.001	60.194
33.001	60.094
34.001	62.494
35.002	62.994
36.002	56.994
37.002	60.594
38.002	60.894
39.002	60.294
40.064	59.693
41.062	50.797
42.002	21.806
43.002	32.597
44.002	44.396
45.003	54.095
46.003	58.694
47.002	54.349
48.002	61.494
49.002	61.294
50.002	61.494
51.002	64.294
52.002	64.094
53.002	57.594
54.002	61.594
55.002	61.694
56.003	63.394
57.003	65.093
58.003	57.294
59.003	62.694
60.003	61.394
61.064	63.424
62.003	62.827
63.003	63.994
64.003	57.794
65.002	62.356
66.003	61.894
67.003	63.994
68.003	63.094
69.010	63.251
70.003	57.497
71.003	61.994
72.003	62.194
73.003	64.394
74.003	63.894
75.003	57.794
76.004	62.194
77.004	62.594
78.004	64.194
79.004	63.294
80.004	60.094
81.004	63.294
82.003	61.756
83.003	62.594
84.003	29.397
