Time [s]	Current [nA]
0.000	7.663
1.060	62.447
2.010	70.203
3.000	63.024
4.000	60.494
5.068	68.690
6.001	64.624
7.001	64.694
8.001	64.993
9.001	67.193
10.001	67.093
11.066	62.247
12.000	62.735
13.000	65.193
14.000	66.993
15.080	60.606
16.001	66.877
17.001	65.193
18.001	64.894
19.001	64.894
20.001	67.893
21.001	61.594
22.001	65.094
23.066	66.660
24.001	63.095
25.001	65.393
26.063	63.236
27.002	65.595
28.002	65.493
29.001	65.459
30.001	64.594
31.059	63.132
32.001	64.643
33.001	65.493
34.061	60.749
35.001	68.504
36.002	64.394
37.002	61.794
38.060	62.565
39.002	68.677
40.002	64.294
41.002	58.994
42.002	66.793
43.002	66.693
44.002	58.794
45.002	64.394
46.002	63.557
47.002	64.194
48.002	65.993
49.002	60.894
50.002	65.093
51.002	63.994
52.002	64.394
53.002	66.293
54.080	61.218
55.002	64.310
56.003	64.694
57.003	63.994
58.003	63.294
59.003	66.193
60.003	61.294
61.003	65.194
62.003	64.094
63.003	64.394
64.002	66.460
65.002	64.794
66.003	61.994
67.003	65.493
68.003	64.394
69.003	64.494
70.003	67.393
71.003	61.394
72.003	65.593
73.003	64.894
74.003	64.494
75.003	64.993
76.004	68.193
77.004	61.594
78.084	28.979
