Time [s]	Current [nA]
0.000	3.143
1.000	53.795
2.000	50.295
3.000	52.095
4.000	51.295
5.000	50.995
6.059	50.940
7.001	51.799
8.001	51.395
9.000	51.246
10.000	50.995
11.000	50.995
12.000	50.795
13.000	47.595
14.000	30.597
15.000	21.698
16.001	31.497
17.001	38.196
18.001	46.995
19.001	47.595
20.001	49.495
21.001	50.795
22.001	49.795
23.067	49.620
24.001	50.637
25.001	49.895
26.002	48.595
27.001	49.344
28.001	47.095
29.001	51.895
30.001	45.395
31.001	50.795
32.067	51.121
33.001	47.104
34.059	48.294
35.001	49.040
36.002	48.995
37.002	48.495
38.002	47.495
39.002	46.195
40.002	48.895
41.002	50.395
42.002	48.795
43.002	48.795
44.001	48.844
45.001	46.795
46.002	50.995
47.002	49.095
48.002	49.095
49.002	47.995
50.002	44.996
51.002	49.595
52.060	46.876
53.063	47.951
54.002	45.150
55.002	46.195
56.003	49.895
57.003	45.695
58.003	48.895
59.064	48.252
60.003	45.043
61.003	46.695
62.002	49.244
63.002	45.096
64.002	47.995
65.002	45.695
66.003	46.795
67.003	49.395
68.003	45.495
69.090	49.949
70.003	47.969
71.003	48.395
72.003	46.995
73.003	44.296
74.003	48.295
75.003	45.895
76.004	46.095
77.004	46.695
78.070	45.868
79.003	46.726
80.003	46.695
81.065	42.745
82.003	49.675
83.003	46.795
84.003	43.996
85.003	48.995
86.004	47.595
87.004	45.995
88.004	46.395
89.004	44.296
90.004	47.595
91.004	47.395
92.004	42.596
93.004	46.095
94.004	47.295
95.004	48.195
96.005	44.296
97.004	46.742
98.063	48.248
99.004	45.904
100.004	48.895
101.004	47.595
102.004	46.195
103.004	49.795
104.004	49.395
105.004	48.395
106.058	17.472
