Time [s]	Current [nA]
0.000	34.197
1.062	66.942
2.001	61.016
3.064	62.082
4.004	64.355
5.000	65.255
6.001	63.394
7.002	63.430
8.063	63.142
9.001	62.894
10.005	57.464
11.001	64.251
12.001	62.694
13.001	62.494
14.060	61.939
15.062	66.627
16.067	63.476
17.001	60.915
18.062	65.121
19.003	63.118
20.006	64.699
21.068	60.540
22.001	62.480
23.064	64.246
24.001	60.293
25.001	64.794
26.007	64.173
27.002	57.180
28.069	62.880
29.005	60.678
30.078	66.722
31.006	60.554
32.006	59.794
33.001	63.612
34.001	61.594
35.066	63.340
36.006	62.334
37.065	61.089
38.002	61.146
39.064	63.553
40.063	61.856
41.002	59.419
42.061	61.278
43.007	68.175
44.063	59.842
45.065	61.832
46.065	61.994
47.006	61.737
48.065	60.806
49.080	62.063
50.002	61.924
51.002	61.794
52.063	64.178
53.005	61.247
54.070	60.463
55.069	65.625
56.065	63.749
57.003	61.401
58.004	66.227
59.065	63.142
60.011	68.703
61.003	60.276
62.003	63.894
63.007	63.938
64.004	67.095
65.009	67.025
66.004	60.094
67.008	63.539
68.067	66.566
69.070	67.391
70.077	59.875
71.008	70.133
72.003	60.094
73.063	66.503
74.003	61.590
75.065	63.142
76.005	71.376
77.004	59.754
78.065	66.346
79.119	39.370
