Time [s]	Current [nA]
0.000	27.825
1.008	42.952
2.000	39.714
3.000	42.296
4.000	41.996
5.001	43.496
6.001	44.196
7.001	39.096
8.001	44.596
9.001	41.696
10.001	41.196
11.059	39.221
12.058	42.939
13.001	41.565
14.001	42.696
15.059	39.353
16.002	43.792
17.057	41.986
18.001	41.309
19.057	42.325
20.001	44.381
21.001	41.996
22.001	42.196
23.057	41.568
24.001	42.898
25.059	40.299
26.059	41.596
27.002	43.686
28.002	43.796
29.058	42.325
30.059	41.055
31.060	43.652
32.002	45.537
33.057	41.039
34.001	43.322
35.002	44.096
36.002	43.896
37.002	42.496
38.002	43.496
39.002	43.896
40.002	41.096
41.064	47.453
42.002	42.107
43.002	42.796
44.002	42.396
45.063	41.977
46.003	43.932
47.003	43.496
48.065	40.580
49.058	42.090
50.003	46.556
51.058	43.977
52.002	44.487
53.059	42.285
54.002	46.655
55.002	44.396
56.003	45.695
57.003	40.896
58.003	45.695
59.003	44.596
60.003	43.496
61.003	43.696
62.058	42.650
63.003	44.546
64.003	43.996
65.003	24.098
66.004	11.599
67.004	20.098
68.004	23.498
69.003	35.932
70.003	38.596
71.003	44.196
72.003	45.295
73.003	43.296
74.003	47.395
75.003	45.096
76.060	42.136
77.059	44.540
78.090	43.740
79.062	48.246
80.059	43.426
81.062	44.861
82.004	46.704
83.070	45.868
84.004	44.642
85.004	41.996
86.060	31.371
87.059	29.927
88.064	29.350
89.004	30.103
90.004	28.297
91.004	31.097
92.058	29.409
93.060	31.334
94.060	30.997
95.064	31.303
96.067	32.100
97.005	29.741
98.005	29.797
99.060	27.959
100.005	33.013
101.005	31.597
102.067	32.671
103.005	31.127
104.056	30.349
105.060	32.898
106.064	35.654
107.005	34.003
108.062	32.636
109.005	35.627
110.005	34.897
111.063	33.645
112.005	38.107
113.005	34.297
114.005	37.096
115.005	37.796
116.006	36.696
117.006	36.596
118.006	32.297
119.006	37.196
120.064	34.779
121.006	40.017
122.005	38.835
123.005	40.096
124.005	37.896
125.062	37.367
126.005	40.313
127.114	22.462
