Time [s]	Current [nA]
0.000	25.498
1.059	61.845
2.000	64.074
3.000	66.493
4.000	67.293
5.001	60.194
6.000	63.958
7.056	66.565
8.000	64.294
9.059	63.450
10.000	63.118
11.000	69.693
12.000	58.694
13.000	63.994
14.000	67.093
15.000	67.393
16.001	59.294
17.001	69.893
18.001	58.694
19.001	66.593
20.001	67.493
21.073	60.722
22.001	63.248
23.000	64.058
24.057	66.124
25.000	64.469
26.001	67.093
27.001	59.194
28.001	58.394
29.001	25.097
30.063	31.353
31.001	45.411
32.001	49.095
33.001	60.294
34.001	61.794
35.001	65.393
36.002	67.693
37.063	65.215
38.002	63.252
39.002	64.894
40.060	61.147
41.001	65.349
42.081	67.493
43.001	64.993
44.001	66.093
45.061	60.995
46.002	69.281
47.002	67.393
48.002	61.594
49.058	62.778
50.002	68.637
51.002	65.393
52.002	66.393
53.002	59.594
54.061	64.300
55.002	70.025
56.003	65.293
57.003	65.293
58.064	64.367
59.002	64.812
60.002	59.894
61.002	64.294
62.002	69.993
63.002	59.294
64.052	65.041
65.002	70.309
66.015	65.310
67.003	59.711
68.003	64.894
69.003	66.893
70.003	67.593
71.003	59.394
72.069	67.817
73.003	62.521
74.003	64.994
75.003	66.793
76.003	67.361
77.003	59.494
78.003	64.394
79.093	54.123
