Time [s]	Current [nA]
0.000	37.235
1.000	62.494
2.000	68.293
3.061	62.576
4.055	65.285
5.000	68.353
6.001	61.694
7.001	67.893
8.007	65.401
9.066	62.506
10.001	62.988
11.001	65.393
12.001	67.793
13.001	62.194
14.001	65.593
15.002	64.894
16.001	64.658
17.001	67.093
18.001	59.494
19.001	66.493
20.057	62.494
21.057	64.694
22.001	68.531
23.054	63.906
24.001	64.724
25.001	66.093
26.002	64.594
27.002	64.993
28.002	60.894
29.002	64.894
30.002	68.593
31.002	65.093
32.002	64.794
33.064	60.540
34.066	67.857
35.001	65.020
36.009	64.542
37.002	59.108
38.002	64.094
39.098	66.325
40.063	66.729
41.002	64.104
42.061	61.184
43.002	67.793
44.002	58.794
45.002	66.693
46.003	66.193
47.003	59.194
48.003	64.094
49.003	69.393
50.003	58.294
51.058	63.690
52.002	69.802
53.002	59.094
54.056	66.407
55.002	67.647
56.003	61.794
57.061	63.132
58.090	63.065
59.003	64.506
60.052	66.056
61.003	66.975
62.064	64.367
63.060	60.436
64.003	63.620
65.003	63.794
66.004	69.793
67.004	60.894
68.004	66.693
69.003	64.658
70.064	61.445
71.056	64.610
72.003	61.768
73.003	66.593
74.061	63.604
75.003	63.263
76.059	66.344
77.062	63.902
78.004	0.425
