Time [s]	Current [nA]
0.000	25.902
1.000	61.394
2.000	63.694
3.061	60.220
4.000	59.312
5.000	46.995
6.001	18.798
7.001	29.597
8.080	38.458
9.001	52.221
10.001	55.294
11.001	59.194
12.000	61.856
13.000	64.794
14.000	58.894
15.059	58.973
16.001	65.280
17.001	61.494
18.001	63.494
19.001	56.294
20.001	64.294
21.001	61.394
22.001	61.294
23.001	61.894
24.001	58.794
25.001	63.994
26.002	56.494
27.002	61.394
28.002	61.694
29.001	61.655
30.001	64.394
31.001	58.194
32.001	61.694
33.001	60.994
34.001	61.694
35.001	63.794
36.002	58.394
37.002	60.994
38.002	61.694
39.068	63.783
40.002	59.202
41.002	63.494
42.002	58.294
43.002	62.194
44.002	61.394
45.002	60.594
46.003	57.094
47.059	58.517
48.002	65.529
49.002	61.994
50.002	60.594
51.002	60.094
52.002	57.494
53.002	63.694
54.002	61.494
55.002	60.694
56.003	60.694
57.003	57.194
58.003	60.994
59.003	62.994
60.003	60.594
61.003	60.494
62.003	60.494
63.003	57.094
64.060	59.597
65.002	59.760
66.003	60.994
67.003	61.094
68.003	61.594
69.003	61.494
70.003	57.894
71.003	62.094
72.003	60.794
73.003	59.194
74.062	59.579
75.003	59.611
76.058	57.110
77.004	62.362
78.004	59.094
79.102	60.650
80.004	54.097
81.004	61.294
82.003	59.854
83.003	59.094
84.003	59.394
85.057	7.122
