Time [s]	Current [nA]
0.000	34.792
1.000	64.894
2.000	59.494
3.000	62.394
4.000	62.094
5.001	62.094
6.000	61.956
7.000	59.494
8.000	64.294
9.000	62.394
10.000	61.594
11.000	61.694
12.000	59.094
13.000	64.394
14.000	62.394
15.000	63.494
16.057	60.032
17.001	59.634
18.001	64.894
19.001	64.294
20.001	56.994
21.001	61.994
22.001	62.294
23.000	64.458
24.081	58.829
25.009	69.141
26.001	58.260
27.060	64.488
28.001	60.037
29.001	65.093
30.001	60.294
31.001	62.694
32.001	61.894
33.001	61.894
34.001	63.594
35.001	64.594
36.055	62.862
37.002	61.240
38.002	62.694
39.002	62.494
40.002	64.993
41.001	65.759
42.001	57.794
43.001	61.394
44.001	61.994
45.001	62.694
46.002	65.493
47.002	59.594
48.002	62.494
49.002	62.394
50.002	62.294
51.002	64.194
52.002	65.293
53.011	63.423
54.002	58.319
55.002	62.994
56.003	63.194
57.003	65.293
58.002	65.859
59.002	58.094
60.002	63.094
61.002	63.194
62.002	64.894
63.061	61.656
64.002	60.143
65.002	63.094
66.003	61.794
67.003	62.294
68.003	64.694
69.003	64.594
70.062	59.390
71.003	59.293
72.003	61.694
73.003	64.894
74.003	63.794
75.003	58.594
76.003	62.156
77.003	61.294
78.003	61.694
79.003	63.894
80.117	37.788
