Time [s]	Current [nA]
0.000	11.139
1.000	71.193
2.062	67.319
3.000	76.112
4.000	65.393
5.001	70.793
6.001	74.393
7.001	67.393
8.066	73.326
9.001	67.480
10.001	70.693
11.001	73.193
12.000	66.960
13.000	70.593
14.066	73.070
15.070	69.784
16.065	69.943
17.058	66.358
18.055	72.911
19.062	71.095
20.062	69.893
21.062	69.893
22.059	65.691
23.056	73.313
24.077	68.847
25.067	72.389
26.002	67.159
27.067	72.481
28.064	66.092
29.001	70.751
30.066	72.763
31.067	69.923
32.001	67.231
33.053	69.100
34.084	69.634
35.001	70.985
36.002	69.893
37.002	69.293
38.002	69.593
39.002	72.393
40.002	72.293
41.002	64.094
42.002	69.393
43.002	69.593
44.002	72.393
45.002	70.393
46.068	69.477
47.002	67.231
48.066	71.327
49.002	66.553
50.060	68.046
51.002	69.632
52.002	69.293
53.002	69.193
54.002	69.193
55.002	70.493
56.003	71.393
57.063	68.767
58.003	66.483
59.003	68.593
60.003	68.993
61.060	67.732
62.059	71.765
63.003	66.519
64.064	71.341
65.002	65.772
66.003	68.793
67.003	71.893
68.065	67.131
69.003	67.584
70.003	67.993
71.003	68.393
72.044	50.235
