Time [s]	Current [nA]
0.000	2.191
1.000	69.093
2.000	70.993
3.000	70.893
4.061	68.608
5.000	66.979
6.058	65.367
7.059	68.924
8.001	75.789
9.000	65.859
10.000	69.693
11.000	68.993
12.000	69.193
13.100	70.811
14.000	63.660
15.000	71.093
16.001	69.993
17.001	68.793
18.001	68.693
19.001	65.893
20.001	71.393
21.086	71.329
22.001	68.190
23.001	69.093
24.057	65.618
25.063	72.232
26.002	69.003
27.001	63.757
28.062	71.341
29.001	66.128
30.001	70.693
31.001	71.093
32.001	69.393
33.062	66.157
34.001	65.489
35.001	68.593
36.002	71.293
37.062	67.635
38.002	67.334
39.002	68.593
40.062	70.276
41.002	68.717
42.099	70.914
43.057	64.920
44.001	67.154
45.001	68.293
46.002	74.193
47.002	65.093
48.002	71.393
49.002	63.094
50.002	73.893
51.002	68.193
52.002	63.394
53.002	69.593
54.002	71.493
55.065	65.154
56.003	66.091
57.003	68.193
58.065	73.251
59.003	67.797
60.003	63.094
61.003	74.093
62.002	68.061
63.002	61.794
64.002	71.593
65.002	65.093
66.003	68.493
67.003	67.893
68.060	70.097
69.066	70.271
70.003	68.190
71.003	62.094
72.003	68.593
73.003	67.593
74.057	0.474
