Time [s]	Current [nA]
0.000	48.905
1.000	71.407
2.000	71.807
3.000	73.907
4.061	69.847
4.999	69.975
6.065	73.553
6.999	69.493
8.089	75.145
8.999	70.117
9.999	67.907
11.061	74.395
11.999	68.557
12.999	72.007
13.998	68.075
14.997	74.107
15.997	72.307
16.997	70.907
17.997	70.407
19.097	64.461
19.997	74.896
20.997	73.807
22.055	67.493
22.997	75.698
23.997	71.707
24.997	68.507
25.996	74.908
27.004	72.329
27.996	66.640
29.062	74.022
29.996	69.279
30.995	74.382
32.060	71.275
33.057	73.227
33.995	69.197
34.995	72.507
35.994	69.207
36.994	73.707
37.994	73.607
38.994	72.007
39.994	71.407
40.994	71.807
41.994	68.907
42.994	75.008
44.053	68.845
45.053	72.635
45.993	76.603
47.056	71.221
47.993	69.377
48.992	69.076
49.992	72.007
50.992	71.307
51.992	71.407
52.992	74.507
54.054	70.723
54.992	70.903
55.991	72.307
56.991	72.107
57.991	71.907
58.991	73.007
59.991	68.207
60.991	73.507
62.053	67.615
62.991	76.340
64.053	70.440
64.991	72.715
65.989	73.581
66.989	72.707
67.989	72.107
68.989	72.407
69.989	17.602
