Time [s]	Current [nA]
0.000	26.167
0.941	69.281
1.941	72.593
2.941	72.893
3.941	63.994
4.941	71.493
5.942	69.793
6.942	70.393
7.942	72.493
8.942	66.293
9.942	70.493
10.942	69.093
11.997	65.396
12.942	75.971
14.005	68.949
15.010	68.718
15.943	67.303
16.943	68.993
17.942	68.962
18.942	65.193
19.942	70.993
20.942	69.893
21.942	68.493
22.942	68.493
23.942	71.293
24.942	63.094
25.943	71.793
26.943	69.193
28.001	64.455
28.943	72.710
30.002	67.415
30.943	69.494
31.997	66.028
32.943	70.923
33.943	66.693
34.942	69.362
35.943	62.594
36.943	70.993
37.943	69.093
38.943	68.193
39.943	68.593
41.005	67.413
41.943	67.584
42.943	63.194
44.005	68.637
44.943	71.528
46.032	62.953
46.944	70.717
48.001	65.935
49.002	68.425
50.006	66.627
51.003	68.198
51.944	68.325
52.943	65.159
53.943	67.593
55.009	71.448
55.944	65.983
56.944	68.693
57.944	70.793
58.944	65.393
60.002	64.738
60.944	72.816
61.998	64.984
62.944	74.623
63.944	64.993
64.944	69.093
66.006	71.623
66.945	65.808
67.945	68.993
68.945	71.193
69.944	65.659
71.000	66.281
71.944	72.980
72.976	49.317
