Time [s]	Current [nA]
0.000	52.095
1.055	66.913
2.000	71.845
3.000	67.193
4.000	67.493
5.000	63.694
6.063	72.874
7.057	61.966
8.001	71.391
9.001	67.693
10.001	69.593
11.001	62.594
12.001	71.393
13.001	68.293
14.058	63.948
15.001	71.785
16.060	66.439
17.001	68.750
18.001	68.993
19.001	67.993
20.063	70.614
21.001	66.518
22.001	70.593
23.001	65.193
24.001	68.393
25.001	67.493
26.002	68.393
27.002	71.093
28.002	65.493
29.002	68.893
30.002	69.593
31.002	68.793
32.002	68.593
33.001	64.558
34.001	70.993
35.001	69.293
36.058	64.577
37.002	72.239
38.002	64.694
39.061	67.321
40.002	72.575
41.002	62.394
42.002	73.693
43.002	61.894
44.063	72.943
45.002	67.618
46.003	62.894
47.003	67.493
48.003	73.393
49.003	64.494
50.003	68.593
51.002	69.062
52.002	62.094
53.002	73.193
54.002	67.393
55.002	64.094
56.003	70.493
57.003	62.194
58.003	67.093
59.003	67.993
60.003	68.293
61.003	68.893
62.003	70.593
63.003	62.294
64.063	69.804
65.003	64.036
66.004	69.093
67.004	69.893
68.003	63.057
69.003	66.993
70.003	66.393
71.003	66.593
72.003	70.493
73.003	69.193
74.003	0.500
