Time [s]	Current [nA]
0.000	21.603
0.935	53.257
1.935	57.394
2.935	56.894
3.935	51.495
4.935	54.995
5.998	56.492
6.936	54.899
7.936	54.995
9.001	54.924
9.936	53.043
10.935	54.649
11.999	56.573
12.997	51.197
13.935	55.538
14.935	54.994
15.936	54.795
16.936	54.295
17.936	56.194
18.936	56.194
19.936	52.195
20.936	55.694
21.936	54.895
22.936	55.494
23.937	56.937
24.936	52.647
25.937	55.994
26.991	52.082
27.936	58.407
28.936	55.094
29.936	51.995
30.936	57.294
31.994	53.870
32.936	59.230
33.936	56.194
34.936	58.594
35.937	54.495
37.012	58.599
37.937	55.670
38.937	56.894
39.937	57.194
40.937	58.794
41.937	54.195
42.937	46.595
43.937	24.998
44.937	34.597
45.995	43.420
46.937	50.632
47.937	54.994
48.998	53.152
49.937	61.123
50.937	57.794
51.937	59.094
52.937	54.795
53.937	59.294
54.937	57.594
55.938	57.794
56.938	59.994
57.938	53.695
58.938	61.194
59.938	58.194
61.000	54.514
61.938	62.467
62.937	55.750
63.937	60.294
64.937	58.494
65.938	57.994
66.938	57.394
67.938	59.694
68.938	53.995
69.938	60.294
70.938	58.694
71.938	58.194
72.938	58.394
73.938	55.694
74.938	60.794
75.939	58.494
76.939	58.494
78.001	55.079
78.939	62.787
80.000	57.299
80.938	58.736
81.938	58.794
82.938	58.394
83.938	58.494
84.938	59.994
86.002	58.320
86.939	56.451
87.939	59.294
88.939	58.394
89.939	22.298
