Time [s]	Current [nA]
0.000	49.095
1.000	57.194
2.000	59.694
3.000	57.494
4.000	56.994
5.060	53.913
6.001	57.805
7.001	58.394
8.059	54.059
9.001	60.397
10.000	56.751
11.000	51.495
12.000	58.894
13.000	53.695
14.000	56.994
15.000	56.594
16.001	56.694
17.001	58.994
18.001	53.895
19.001	56.394
20.001	56.094
21.001	55.194
22.001	55.294
23.001	58.594
24.001	53.695
25.001	56.894
26.068	57.780
27.002	54.598
28.001	58.653
29.001	53.795
30.001	57.494
31.001	57.594
32.001	56.894
33.001	57.694
34.062	56.168
35.001	56.331
36.002	50.295
37.002	20.098
38.002	27.097
39.002	35.396
40.002	46.195
41.002	52.695
42.002	49.095
43.002	57.894
44.062	60.088
45.001	57.928
46.002	54.994
47.002	58.294
48.002	57.494
49.002	57.494
50.002	58.994
51.002	57.794
52.002	54.695
53.002	57.794
54.002	57.494
55.002	57.294
56.003	60.094
57.003	54.695
58.003	58.694
59.003	57.694
60.065	59.975
61.003	56.391
62.003	58.594
63.068	56.426
64.002	55.776
65.002	57.494
66.003	57.494
67.054	56.417
68.003	57.107
69.003	57.994
70.003	57.894
71.003	57.494
72.086	52.719
73.003	59.318
74.003	59.694
75.003	57.394
76.004	57.094
77.066	54.326
78.004	58.523
79.004	59.594
80.003	57.752
81.003	57.794
82.003	58.094
83.003	57.894
84.003	54.895
85.003	54.795
86.004	58.594
87.004	56.994
88.004	56.994
89.150	47.377
