Time [s]	Current [nA]
0.000	17.725
1.000	59.294
2.000	59.794
3.000	59.394
4.000	59.094
5.001	59.794
6.000	56.351
7.000	61.594
8.000	60.494
9.000	59.394
10.000	59.794
11.000	56.794
12.000	61.794
13.075	61.761
14.063	54.853
15.001	63.281
16.001	59.094
17.001	61.594
18.001	56.994
19.001	60.194
20.001	59.294
21.001	59.694
22.001	62.294
23.001	56.894
24.000	60.354
25.001	60.194
26.001	60.394
27.001	60.794
28.001	62.594
29.001	57.994
30.059	58.217
31.001	63.688
32.057	56.812
33.001	66.201
34.106	56.646
35.002	62.340
36.002	60.894
37.002	60.194
38.004	60.174
39.002	57.910
40.056	58.913
41.001	64.332
42.001	59.694
43.001	60.194
44.001	62.294
45.001	55.394
46.002	62.894
47.002	61.294
48.002	60.594
49.064	56.586
50.002	61.081
51.002	62.394
52.002	61.294
53.002	59.894
54.002	60.194
55.003	54.695
56.003	62.194
57.003	62.694
58.003	55.394
59.002	59.554
60.002	64.794
61.002	57.094
62.060	58.501
63.002	58.274
64.002	64.794
65.002	59.694
66.003	54.395
67.003	62.394
68.062	57.879
69.003	58.230
70.003	58.894
71.003	64.094
72.065	59.034
73.003	59.163
74.003	59.494
75.003	53.895
76.003	64.158
77.003	58.794
78.003	55.894
79.003	60.994
80.003	54.495
81.003	58.394
82.003	63.794
83.003	55.794
84.003	27.997
