Time [s]	Current [nA]
0.000	25.103
1.055	59.046
2.000	65.814
3.000	58.994
4.000	64.694
5.079	58.436
6.000	61.557
7.000	61.494
8.057	63.854
9.000	62.242
10.000	64.294
11.000	57.194
12.052	63.777
13.000	64.972
14.000	59.194
15.001	63.994
16.006	62.183
17.001	57.180
18.061	63.579
19.059	61.016
20.001	61.990
21.001	64.194
22.001	56.494
23.001	60.894
24.000	60.955
25.000	63.194
26.001	62.294
27.001	62.394
28.001	55.794
29.057	62.588
30.061	60.253
31.001	61.377
32.060	59.579
33.060	61.394
34.062	59.874
35.002	58.035
36.002	61.094
37.066	57.983
38.002	66.767
39.002	55.494
40.002	60.194
41.001	59.654
42.056	58.762
43.001	66.131
44.001	54.994
45.060	61.053
46.002	62.733
47.089	56.204
48.002	61.330
49.002	62.294
50.002	54.994
51.002	58.694
52.002	59.194
53.002	61.694
54.002	61.994
55.078	55.715
56.003	58.697
57.063	60.560
58.063	59.794
59.002	60.271
60.063	58.524
61.002	58.035
62.002	58.694
63.060	60.674
64.002	59.760
65.002	61.394
66.007	59.755
67.064	57.232
68.062	58.110
69.003	56.636
70.059	57.949
71.003	65.354
72.003	54.695
73.003	58.994
74.064	60.691
75.003	60.164
76.003	60.154
77.003	55.494
78.003	59.794
79.003	59.094
80.003	64.494
81.003	56.094
82.003	62.294
83.148	33.534
