Time [s]	Current [nA]
0.000	19.051
0.999	50.245
1.999	47.895
2.999	52.695
3.999	46.195
4.999	49.595
6.057	49.948
7.000	49.730
8.000	50.695
9.059	48.720
10.000	48.029
11.000	49.095
12.000	53.395
13.000	47.395
14.000	51.595
15.001	45.395
16.001	49.095
17.056	50.327
18.001	47.297
19.000	50.746
20.000	50.795
21.000	45.295
22.000	49.195
23.000	50.095
24.000	51.495
25.000	51.895
26.061	47.165
27.001	52.548
28.001	45.295
29.083	50.457
30.001	51.847
31.057	48.764
32.001	49.042
33.001	49.495
34.059	50.940
35.059	46.942
36.001	54.772
37.001	44.796
38.001	49.995
39.001	49.695
40.001	54.295
41.001	48.095
42.001	51.695
43.001	45.395
44.001	48.995
45.001	53.695
46.002	46.795
47.002	51.895
48.002	50.095
49.002	45.595
50.002	48.595
51.002	50.395
52.002	53.395
53.002	53.195
54.001	47.443
55.001	51.395
56.002	55.994
57.002	49.095
58.002	51.795
59.002	48.995
60.002	51.795
61.002	50.995
62.002	55.994
63.002	49.395
64.002	53.695
65.062	49.192
66.003	54.405
67.003	51.795
68.080	50.970
69.003	49.832
70.003	48.795
71.002	52.247
72.002	50.995
73.002	55.094
74.002	48.895
75.002	53.795
76.003	47.395
77.003	50.895
78.003	50.795
79.094	50.682
80.003	53.460
81.003	52.695
82.003	46.495
83.003	54.795
84.003	50.495
85.003	48.095
86.004	53.295
87.004	46.295
88.004	51.595
89.003	50.846
90.003	50.695
91.003	52.795
92.003	53.595
93.003	46.695
94.003	50.595
95.003	50.395
96.061	49.759
97.004	50.366
98.004	51.695
99.004	51.595
100.004	5.199
