Time [s]	Current [nA]
0.000	51.507
1.000	68.793
2.000	75.392
3.000	73.093
4.000	71.793
5.001	71.493
6.060	69.398
7.001	72.575
8.001	72.593
9.001	72.893
10.001	71.193
11.000	71.264
12.000	68.693
13.000	74.093
14.000	72.293
15.000	70.993
16.001	71.193
17.001	74.593
18.001	65.993
19.001	74.693
20.001	71.993
21.001	71.993
22.001	71.293
23.001	73.993
24.001	68.193
25.002	72.593
26.002	71.293
27.002	71.393
28.001	74.567
29.001	65.593
30.001	75.492
31.059	67.857
32.051	71.666
33.001	75.466
34.059	70.314
35.001	71.967
36.060	68.991
37.002	75.682
38.002	71.493
39.086	67.060
40.002	73.355
41.002	74.293
42.002	73.193
43.002	71.193
44.002	71.993
45.061	70.787
46.002	72.788
47.002	72.993
48.002	71.393
49.002	70.893
50.002	71.293
51.002	68.393
52.002	74.393
53.002	72.793
54.002	71.293
55.002	70.993
56.057	70.866
57.003	71.663
58.003	71.693
59.003	71.893
60.003	70.493
61.003	70.793
62.003	74.093
63.002	67.561
64.002	72.093
65.002	70.193
66.003	70.593
67.003	73.193
68.003	66.093
69.003	72.393
70.003	21.898
