Time [s]	Current [nA]
0.000	23.153
1.000	48.395
1.945	53.011
2.945	44.396
4.012	50.510
5.003	43.588
6.004	47.095
7.004	46.795
8.001	48.842
9.003	43.908
10.000	47.337
11.004	45.513
12.003	46.442
12.946	50.472
13.946	42.196
15.005	46.404
16.009	46.310
16.947	48.929
18.005	43.096
19.002	48.039
20.008	48.107
21.002	42.249
22.000	45.987
23.011	50.638
23.946	44.701
25.009	46.041
25.947	46.797
27.010	44.210
28.005	47.432
29.004	46.542
29.947	50.366
30.947	44.296
32.026	48.188
33.004	42.940
34.004	46.295
34.947	48.670
36.003	46.062
36.947	45.970
38.009	44.252
39.001	46.266
40.000	45.541
40.947	50.259
41.947	44.096
42.947	46.795
44.005	44.135
44.950	48.249
46.004	43.870
47.012	47.118
47.949	47.274
48.948	46.642
50.005	42.664
50.948	48.351
51.948	43.096
52.948	45.895
54.005	44.839
54.947	49.146
55.948	44.896
56.948	45.595
57.952	47.306
58.948	43.570
59.948	46.295
60.948	45.795
62.005	43.420
63.023	46.655
64.022	46.842
64.948	46.324
65.949	45.695
66.949	44.896
67.950	44.751
68.956	47.212
69.949	44.406
70.948	46.442
71.948	45.095
73.005	42.947
73.948	48.351
74.948	44.196
75.949	47.295
77.007	43.852
77.949	47.872
78.951	45.504
79.952	47.648
80.951	43.940
81.950	46.942
83.011	43.822
84.006	45.724
85.005	45.641
85.956	50.100
86.951	44.317
87.949	46.889
88.949	45.895
89.949	46.095
90.949	44.096
91.950	47.648
92.951	46.549
93.949	46.689
94.949	45.595
96.008	43.001
96.953	50.365
97.950	44.429
98.950	46.395
99.951	45.850
101.008	43.515
101.951	51.002
103.053	43.644
103.950	47.598
104.950	46.395
105.950	46.041
106.950	46.195
107.954	44.119
