Time [s]	Current [nA]
0.000	32.197
1.000	37.596
2.000	38.496
3.066	34.331
4.000	10.920
5.001	13.299
6.001	20.998
7.057	26.418
8.001	30.082
9.061	36.128
10.001	38.188
11.001	40.796
12.001	40.096
13.001	37.496
14.001	39.796
15.001	39.035
16.001	39.496
17.001	36.996
18.001	40.396
19.001	39.096
20.001	38.696
21.001	38.796
22.001	38.996
23.001	37.296
24.001	39.996
25.002	35.496
26.002	38.296
27.002	38.296
28.002	40.096
29.002	36.896
30.002	38.696
31.002	39.196
32.002	38.796
33.001	38.835
34.001	40.296
35.002	36.396
36.002	38.996
37.002	38.796
38.002	38.996
39.002	36.896
40.002	39.696
41.002	38.796
42.002	39.296
43.065	36.403
44.002	40.978
45.003	36.896
46.003	40.196
47.003	35.396
48.065	39.921
49.003	36.883
50.002	40.236
51.002	38.196
52.002	35.896
53.002	37.996
54.063	39.487
55.002	36.844
56.065	37.002
57.003	38.269
58.003	38.696
59.003	37.896
60.068	39.433
61.003	37.964
62.003	39.796
63.003	36.696
64.003	39.296
65.062	36.386
66.004	40.760
67.004	36.696
68.061	37.934
69.003	41.291
70.003	38.696
71.003	38.396
72.003	38.696
73.003	36.896
74.062	37.296
75.003	37.191
76.004	37.596
77.004	37.696
78.004	39.096
79.065	36.754
80.251	23.606
