Time [s]	Current [nA]
0.000	24.098
1.000	36.096
2.000	37.696
3.000	37.396
4.000	33.297
5.001	36.696
6.001	36.296
7.063	37.567
8.001	36.990
9.001	38.096
10.001	34.397
11.001	36.596
12.000	36.833
13.054	36.334
14.000	40.377
15.001	33.997
16.001	37.196
17.001	36.796
18.001	36.296
19.001	36.796
20.001	35.696
21.001	30.297
22.001	31.497
23.063	31.164
24.001	29.848
25.002	28.197
26.002	25.597
27.002	25.097
28.002	24.298
29.062	23.111
30.001	20.658
31.001	19.498
32.001	16.898
33.001	15.798
34.001	14.998
35.002	14.799
36.002	12.899
37.002	11.399
38.002	11.899
39.002	11.499
40.002	11.699
41.057	10.046
42.002	9.946
43.090	8.547
44.002	8.442
45.003	7.799
46.068	7.887
47.002	7.601
48.002	4.000
49.002	2.900
50.002	2.400
51.002	2.500
52.002	2.600
53.002	2.600
54.002	2.300
55.069	2.626
56.063	2.414
57.061	2.204
58.065	2.091
59.064	2.502
60.003	2.662
61.003	2.700
62.003	2.500
63.003	2.600
64.002	2.502
65.003	2.500
66.003	2.600
67.003	2.800
68.003	2.800
69.003	3.300
70.003	2.900
71.003	3.100
72.003	3.000
73.003	3.100
74.003	3.100
75.003	3.100
76.004	2.500
77.070	2.533
78.004	2.891
79.004	2.700
80.004	2.500
81.004	2.400
82.069	2.723
83.003	2.783
84.003	2.800
85.003	2.700
86.004	3.000
87.004	3.100
88.004	3.000
89.004	3.100
90.004	3.300
91.004	3.300
92.004	3.500
93.004	3.200
94.004	3.400
95.004	3.700
96.067	3.766
97.005	3.305
98.005	3.300
99.004	3.403
100.004	3.300
101.004	3.400
102.004	3.400
103.004	3.600
104.004	3.400
105.004	3.800
106.005	3.700
107.005	3.600
108.005	4.000
109.005	3.800
110.005	3.700
111.005	4.100
112.005	4.300
113.005	4.100
114.005	4.200
115.065	4.721
116.006	4.569
117.005	4.604
118.005	5.099
119.005	4.900
120.005	4.999
121.005	4.500
122.005	5.099
123.005	4.700
124.066	5.372
125.005	5.537
126.006	5.399
127.096	6.880
128.006	6.153
129.006	5.799
130.006	0.700
131.006	0.700
132.006	1.400
133.006	2.300
134.005	3.403
135.005	4.800
136.006	6.199
137.006	6.499
138.006	6.999
139.006	6.899
140.006	7.099
141.006	6.099
142.006	5.899
143.006	6.599
144.006	6.199
145.006	6.299
146.007	6.299
147.007	6.499
148.007	6.499
149.007	6.899
150.007	6.499
151.069	6.026
152.006	6.936
153.006	5.499
154.006	6.099
155.067	6.037
156.007	7.233
157.007	6.499
158.007	5.899
159.007	5.499
160.007	6.199
161.007	6.199
162.007	6.199
163.007	5.699
164.007	5.099
165.007	5.999
166.008	6.499
167.008	5.999
168.008	5.299
169.007	4.704
170.007	4.800
171.007	5.399
172.007	5.199
173.007	5.299
174.069	4.990
175.007	5.650
176.008	4.900
177.008	5.499
178.008	5.099
179.008	5.099
180.008	4.500
181.008	4.800
182.008	4.200
183.008	4.400
184.008	4.900
185.008	4.400
186.009	4.700
187.008	4.804
188.008	4.700
189.008	4.300
190.008	4.500
191.008	4.400
192.008	3.900
193.008	4.100
194.008	4.500
195.008	4.800
196.009	4.700
197.009	4.500
198.009	5.199
199.009	4.700
200.009	5.299
201.009	5.099
202.009	4.600
203.009	4.900
204.008	5.305
205.008	4.600
206.009	4.900
207.009	4.400
208.009	4.300
209.009	3.900
210.069	3.868
211.009	4.361
212.009	4.200
213.009	4.000
214.009	4.300
215.009	4.600
216.010	4.900
217.010	4.600
218.010	4.400
219.074	4.041
220.010	4.059
221.010	4.500
222.009	4.704
223.009	4.500
224.009	4.400
225.009	3.700
226.010	4.400
227.071	4.241
228.010	4.046
229.075	4.694
230.072	4.714
231.089	4.523
232.010	4.668
233.076	4.033
234.010	3.854
235.010	3.900
236.011	4.100
237.011	4.700
238.011	4.300
239.010	4.804
240.010	4.300
241.010	4.400
242.010	4.200
243.010	4.200
244.010	4.100
245.010	4.300
246.011	4.800
247.011	4.600
248.011	4.800
249.011	4.999
250.011	4.500
251.011	4.100
252.011	4.000
253.011	4.100
254.011	4.500
255.011	4.500
256.012	4.300
257.011	4.204
258.014	4.386
259.011	4.112
260.011	4.400
261.011	3.800
262.011	3.700
263.011	3.800
264.011	3.900
265.011	3.800
266.012	4.000
267.012	3.800
268.074	3.860
269.012	4.264
270.012	3.800
271.076	3.853
272.076	4.500
273.012	4.166
274.011	4.104
275.011	4.100
276.012	4.600
277.012	4.300
278.012	3.800
279.012	3.800
280.012	3.900
281.012	3.700
282.012	3.800
283.074	3.484
284.012	3.305
285.076	3.763
286.013	3.735
287.013	3.800
288.013	4.100
289.013	3.900
290.013	4.100
291.013	4.000
292.012	3.904
293.012	3.300
294.012	2.000
295.012	1.100
296.013	0.600
301.013	0.100
302.013	1.900
303.013	33.297
304.013	34.497
305.013	27.297
306.014	25.597
307.014	34.197
308.014	35.396
309.013	35.432
310.013	25.797
311.013	24.898
312.013	35.096
313.013	32.397
314.013	3.100
315.013	41.396
316.014	38.596
317.014	40.396
318.014	38.896
319.014	38.296
320.014	36.996
321.014	38.096
322.069	35.921
323.014	41.795
324.128	19.926
