Time [s]	Current [nA]
0.000	28.908
1.000	64.594
2.000	66.093
3.000	65.493
4.000	58.694
5.001	63.394
6.000	63.457
7.000	64.094
8.000	66.093
9.000	59.994
10.000	63.394
11.000	63.294
12.000	63.294
13.000	65.193
14.000	65.493
15.000	59.094
16.061	64.710
17.001	61.164
18.001	63.994
19.001	66.593
20.001	60.494
21.001	64.094
22.061	64.522
23.000	60.590
24.062	67.413
25.000	63.533
26.077	59.195
27.001	62.440
28.064	64.340
29.062	63.320
30.001	63.572
31.001	59.894
32.001	63.794
33.001	62.794
34.057	64.766
35.064	65.500
36.002	62.787
37.002	58.494
38.002	63.494
39.002	62.594
40.002	62.694
41.001	64.858
42.001	65.193
43.062	59.843
44.001	60.164
45.001	62.294
46.002	65.893
47.002	63.994
48.062	61.692
49.002	61.164
50.002	62.294
51.002	62.894
52.002	65.693
53.002	60.094
54.002	63.894
55.002	62.294
56.003	62.594
57.003	62.394
58.059	60.979
59.002	62.560
60.063	63.990
61.002	59.525
62.002	62.294
63.058	62.115
64.002	68.214
65.064	60.126
66.061	61.980
67.003	59.761
68.003	61.794
69.003	65.093
70.003	64.294
71.003	57.394
72.003	62.394
73.003	62.494
74.003	65.094
75.003	64.894
76.082	58.621
77.003	62.860
78.003	62.394
79.003	62.894
80.003	12.699
