Time [s]	Current [nA]
0.000	23.521
0.999	62.957
1.999	62.194
2.999	64.394
3.999	56.694
4.999	63.094
6.000	62.894
7.000	61.594
8.000	62.194
9.000	58.794
10.000	63.894
11.000	62.194
12.000	62.294
13.062	57.810
14.060	57.609
15.000	65.738
16.001	58.094
17.067	62.377
18.001	58.238
19.000	61.055
20.000	62.794
21.000	57.094
22.000	62.694
23.062	56.962
24.000	64.386
25.016	60.290
26.001	56.847
27.001	62.894
28.001	55.794
29.001	60.294
30.001	59.494
31.063	59.034
32.001	60.761
33.001	60.294
34.001	60.194
35.067	61.308
36.001	58.774
37.001	62.794
38.062	59.184
39.001	58.354
40.001	60.094
41.001	59.794
42.001	61.794
43.001	56.394
44.001	64.894
45.001	55.194
46.002	59.494
47.064	61.387
48.059	56.577
49.002	60.651
50.002	60.594
51.002	59.894
52.067	61.215
53.002	60.422
54.099	56.603
55.001	62.411
56.064	63.930
57.002	58.736
58.064	57.056
59.063	62.656
60.056	57.094
61.002	64.687
62.064	56.680
63.002	64.279
64.002	56.894
65.106	62.550
66.062	59.513
67.003	59.505
68.058	62.553
69.058	60.894
70.003	61.158
71.061	60.202
72.002	59.824
73.061	63.166
74.002	58.974
75.002	60.694
76.003	62.994
77.003	57.894
78.003	61.394
79.003	61.294
80.003	61.194
81.003	64.194
82.003	58.394
83.003	17.998
