Time [s]	Current [nA]
0.000	45.595
1.001	57.237
2.001	62.494
3.000	61.655
4.000	59.794
5.001	60.494
6.061	58.862
7.004	58.743
8.000	63.447
9.000	61.194
10.054	57.300
11.057	59.815
12.068	61.616
13.050	58.141
14.080	66.401
15.002	58.843
16.001	60.354
16.996	61.903
18.002	56.456
19.002	62.394
20.001	61.155
21.001	60.294
22.001	60.194
23.060	58.729
24.001	61.099
25.054	58.549
26.006	63.124
27.001	60.999
28.001	60.194
29.001	58.194
30.005	61.747
31.064	58.257
32.001	65.308
33.001	60.094
34.001	57.294
35.061	59.295
36.002	64.712
37.002	60.994
38.002	59.494
39.060	57.272
40.012	65.750
41.003	58.319
42.001	62.018
43.001	60.094
44.064	56.815
45.006	67.581
46.010	56.568
47.067	59.124
48.002	65.555
49.002	59.794
50.005	59.316
51.004	58.052
52.004	63.794
53.059	58.667
54.002	64.257
55.003	60.494
56.066	58.602
57.094	61.375
58.061	58.629
59.002	64.181
60.064	56.586
61.003	64.317
62.007	63.241
63.066	61.467
64.002	59.396
65.002	60.794
66.062	57.312
67.003	65.881
68.063	58.390
69.005	61.247
70.003	61.417
71.003	60.094
72.003	60.794
73.010	63.052
74.004	58.143
75.066	57.864
76.006	63.823
77.003	60.275
78.003	60.094
79.003	58.594
80.058	58.951
81.003	64.121
82.003	54.695
