Time [s]	Current [nA]
0.000	53.295
1.063	60.295
2.000	60.186
3.000	61.794
3.999	62.056
4.999	63.694
6.000	63.494
7.000	56.394
8.000	61.494
9.000	66.593
10.000	56.694
11.000	64.894
12.000	58.294
13.066	64.534
14.000	59.844
15.000	61.894
16.001	64.494
17.001	57.694
18.001	61.794
19.001	62.594
20.001	61.194
21.000	61.756
22.000	63.094
23.062	61.199
24.000	59.163
25.000	61.394
26.001	61.094
27.001	63.494
28.001	56.594
29.001	63.494
30.001	62.894
31.057	57.665
32.001	65.036
33.001	64.094
34.001	58.094
35.001	62.294
36.002	61.194
37.002	61.294
38.063	58.901
39.001	65.452
40.001	58.894
41.001	62.594
42.001	61.694
43.001	61.294
44.001	57.794
45.001	63.994
46.061	59.767
47.002	57.911
48.002	60.394
49.118	59.492
50.002	64.021
51.061	59.767
52.002	59.293
53.002	60.794
54.002	63.194
55.002	64.994
56.002	65.659
57.002	57.894
58.002	64.494
59.067	64.407
60.002	60.850
61.002	64.894
62.002	65.393
63.062	59.805
64.002	60.739
65.002	62.894
66.066	67.256
67.003	62.854
68.077	58.840
69.003	63.169
70.064	64.838
71.003	60.484
72.059	61.357
73.003	69.379
74.002	58.052
75.002	62.694
76.003	62.994
77.003	64.994
78.003	63.994
79.003	63.994
80.003	58.194
81.003	6.699
