Time [s]	Current [nA]
0.000	48.695
1.000	64.094
2.000	62.494
3.059	58.446
4.000	65.987
5.068	60.350
6.001	60.980
7.063	59.222
8.001	62.147
9.001	62.794
10.067	64.815
11.000	63.123
12.049	61.576
13.000	59.721
14.000	67.793
15.000	57.094
16.001	64.394
17.001	63.494
18.060	61.939
19.001	62.268
20.062	65.026
21.001	61.229
22.001	65.293
23.001	65.093
24.001	58.494
25.001	62.994
26.066	64.467
27.002	60.891
28.001	66.160
29.001	60.094
30.001	63.794
31.001	62.594
32.001	62.894
33.060	61.750
34.063	66.793
35.001	61.401
36.002	62.794
37.002	63.094
38.082	59.439
39.002	65.754
40.002	65.793
41.002	63.894
42.002	62.494
43.002	62.594
44.002	59.094
45.002	64.594
46.002	62.857
47.002	58.394
48.002	62.494
49.002	62.394
50.002	64.594
51.002	59.694
52.002	62.794
53.002	62.394
54.002	62.694
55.061	61.336
56.003	61.883
57.003	66.193
58.003	63.394
59.003	62.794
60.003	62.894
61.003	65.093
62.003	58.994
63.060	59.407
64.060	61.894
65.002	66.978
66.003	58.194
67.003	63.794
68.003	65.593
69.003	62.894
70.003	61.794
71.003	61.994
72.003	59.294
73.003	65.093
74.003	63.094
75.003	62.794
76.004	62.694
77.004	57.494
78.004	64.894
79.004	64.794
80.058	11.953
