Time [s]	Current [nA]
0.000	15.065
1.062	63.930
2.000	61.188
3.000	62.694
4.000	64.993
5.063	67.790
6.001	61.508
7.001	66.593
8.062	63.330
9.057	57.884
10.058	62.731
11.010	66.065
12.000	66.761
13.062	63.365
14.059	60.475
15.059	64.858
16.055	63.447
17.001	66.590
18.001	60.694
19.059	63.132
20.086	63.187
21.063	66.319
22.058	63.009
23.001	61.818
24.064	68.384
25.060	60.195
26.001	62.480
27.001	68.993
28.001	58.694
29.001	66.293
30.001	66.793
31.007	64.208
32.001	59.451
33.001	63.894
34.061	66.220
35.001	64.462
36.002	67.293
37.002	59.394
38.069	65.504
39.002	63.016
40.002	66.393
41.002	65.493
42.002	60.794
43.001	64.658
44.001	65.194
45.001	65.593
46.002	67.793
47.070	64.132
48.002	62.869
49.002	64.294
50.002	63.794
51.002	65.893
52.002	59.494
53.002	66.793
54.002	65.093
55.002	63.894
56.063	60.560
57.003	65.313
58.003	65.993
59.003	65.293
60.003	62.894
61.002	64.158
62.002	64.394
63.002	60.994
64.002	65.893
65.002	64.294
66.058	59.804
67.003	66.237
68.003	65.693
69.003	60.694
70.081	65.949
71.003	62.141
72.003	63.094
73.003	63.194
74.069	62.658
75.003	63.698
76.004	64.094
77.004	63.394
78.003	63.157
79.003	7.099
