Time [s]	Current [nA]
0.000	41.996
1.082	65.151
2.000	55.877
3.000	61.894
4.058	63.037
5.001	65.280
6.000	58.152
7.058	61.052
8.000	60.928
9.000	60.994
10.059	62.694
11.022	64.376
12.000	58.481
13.000	63.594
14.000	57.194
15.001	61.494
16.001	61.094
17.001	62.894
18.001	58.194
19.076	61.575
20.001	60.210
21.001	61.194
22.066	62.905
23.000	61.022
24.066	59.750
25.001	58.774
26.001	60.294
27.001	60.394
28.001	62.394
29.001	56.094
30.001	59.294
31.001	60.694
32.001	59.994
33.001	59.694
34.001	56.794
35.002	61.294
36.002	54.595
37.002	58.994
38.002	59.094
39.002	61.494
40.002	61.494
41.060	57.367
42.001	59.718
43.001	59.294
44.001	59.494
45.001	62.294
46.002	56.294
47.002	60.294
48.002	59.994
49.002	60.094
50.002	62.294
51.002	54.795
52.002	62.794
53.002	61.194
54.002	60.194
55.003	60.494
56.003	57.494
57.003	62.694
58.002	56.050
59.002	59.794
60.002	64.894
61.002	54.395
62.002	62.794
63.002	62.094
64.009	60.272
65.002	55.684
66.003	60.294
67.003	63.194
68.003	53.795
69.003	34.197
70.003	48.495
71.003	56.194
72.003	60.894
73.003	63.894
74.003	57.494
75.003	59.494
76.003	58.453
77.003	58.794
78.003	56.394
79.003	61.294
80.003	60.194
81.003	61.594
82.065	56.021
83.003	63.000
84.057	11.289
