Time [s]	Current [nA]
0.000	60.507
0.993	63.941
2.000	67.719
2.996	67.764
3.993	66.994
4.996	70.282
5.935	67.477
6.934	67.160
7.933	68.161
8.996	63.305
9.990	67.196
11.002	68.965
11.937	68.977
12.933	68.668
13.990	62.718
14.933	70.301
16.003	65.101
16.937	68.087
17.940	68.189
18.934	68.504
19.935	67.626
20.940	67.555
21.934	65.084
22.934	69.593
23.999	65.158
24.995	67.162
25.934	63.853
26.935	69.224
27.936	66.627
28.941	68.451
29.934	62.431
30.934	66.693
31.934	66.193
32.989	66.249
33.938	73.228
34.934	58.829
36.000	44.503
36.939	49.942
37.941	62.469
38.935	69.510
39.934	66.059
40.934	69.193
41.934	66.793
42.996	67.413
43.934	65.985
44.940	68.482
45.997	64.198
46.996	65.859
47.935	63.359
48.943	65.767
49.935	70.557
50.940	69.346
51.935	62.104
52.996	68.419
53.935	63.572
54.939	68.619
56.003	65.469
56.936	64.945
57.935	66.460
58.935	65.193
59.935	67.093
60.937	68.556
61.939	68.556
62.935	61.339
63.999	66.723
64.941	68.889
65.937	62.506
66.996	63.922
67.942	68.386
68.936	60.960
69.936	65.293
70.940	65.531
71.990	65.612
72.944	72.425
73.936	62.091
74.935	66.059
75.936	0.500
