Time [s]	Current [nA]
0.000	14.881
1.000	55.794
2.000	54.995
3.061	56.074
4.055	52.409
5.003	60.184
6.000	50.246
7.000	56.194
8.000	54.395
9.000	54.295
10.000	55.894
11.000	52.295
12.061	56.922
13.000	52.071
14.000	53.895
15.000	56.194
16.001	56.194
17.001	49.795
18.001	54.795
19.001	54.095
20.001	54.095
21.001	55.394
22.001	55.394
23.001	50.095
24.000	53.648
25.056	55.634
26.001	53.540
27.001	55.194
28.001	51.295
29.001	54.994
30.001	53.895
31.001	54.195
32.001	56.194
33.060	53.630
34.001	53.448
35.001	54.895
36.002	54.695
37.002	54.595
38.002	57.894
39.002	51.395
40.002	55.394
41.001	54.749
42.001	54.395
43.001	56.494
44.001	56.694
45.001	50.195
46.002	54.795
47.002	53.995
48.002	45.595
49.002	36.396
50.002	43.296
51.060	54.153
52.059	55.350
53.002	53.865
54.062	59.428
55.002	54.144
56.003	49.295
57.003	53.995
58.003	52.795
59.002	52.447
60.002	56.094
61.002	56.094
62.002	49.895
63.002	53.695
64.002	54.695
65.002	57.094
66.003	54.895
67.009	55.760
68.003	49.995
69.003	53.395
70.003	53.695
71.003	56.394
72.061	52.925
73.003	53.286
74.063	55.749
75.003	53.186
76.073	57.899
77.003	52.360
78.061	53.303
79.061	54.795
80.003	51.587
81.003	54.195
82.003	56.694
83.003	51.895
84.003	54.395
85.003	53.895
86.004	53.595
87.004	53.095
88.004	55.494
89.004	49.795
90.004	53.195
91.004	52.395
92.004	52.895
93.097	37.691
