Time [s]	Current [nA]
0.000	28.434
0.996	54.513
1.937	56.955
2.944	55.307
3.943	50.045
4.937	54.723
5.938	54.095
6.938	52.195
7.938	52.695
8.946	54.360
9.938	51.104
10.938	44.396
11.937	37.434
12.937	47.095
13.938	49.346
14.939	55.839
15.938	57.509
16.938	52.195
17.996	48.199
19.000	50.891
19.944	57.092
21.001	46.637
21.938	55.491
22.941	50.643
23.941	51.795
24.939	52.500
25.946	53.772
26.940	50.397
27.998	49.900
28.997	52.447
29.938	55.999
30.945	54.116
32.008	53.146
32.939	51.660
33.938	53.148
34.938	52.095
35.939	52.295
36.951	53.750
38.001	47.710
38.998	53.856
39.999	53.441
40.939	57.016
41.941	54.486
43.006	51.920
43.945	49.942
44.939	54.220
45.940	51.895
46.939	52.848
47.935	51.601
48.935	50.995
49.935	54.295
50.935	53.695
51.935	53.695
52.935	55.194
53.935	54.795
54.935	50.095
55.936	52.895
56.936	52.095
57.936	52.795
58.994	51.224
59.936	53.922
60.936	54.195
61.936	53.095
62.936	53.495
63.936	54.595
64.935	55.050
65.936	51.895
66.936	54.395
67.936	53.995
68.936	54.495
69.936	50.795
70.936	56.094
71.936	54.795
72.936	53.395
73.936	53.495
74.941	53.328
76.003	52.587
76.999	50.196
77.937	57.244
78.937	48.795
79.937	53.795
80.937	55.694
81.936	50.746
82.936	54.095
83.936	53.995
84.936	53.495
85.937	53.395
86.937	55.694
87.937	50.395
88.937	53.595
89.937	53.895
90.937	53.395
91.998	52.021
92.937	52.604
93.995	50.562
94.937	21.760
