Time [s]	Current [nA]
0.000	6.377
1.053	53.176
2.000	58.284
3.000	49.195
4.000	53.595
5.000	53.595
6.067	55.060
7.001	53.528
8.001	50.195
9.000	54.049
10.000	54.195
11.063	55.121
12.060	49.443
13.093	52.173
14.000	55.783
15.000	53.495
16.001	53.095
17.001	52.995
18.001	49.495
19.001	54.795
20.001	53.395
21.001	53.495
22.001	53.095
23.091	49.903
24.001	54.830
25.001	54.995
26.002	54.295
27.063	50.231
28.001	56.391
29.056	51.654
30.001	53.011
31.001	53.995
32.059	50.468
33.001	55.727
34.001	52.395
35.001	49.895
36.002	54.895
37.002	53.595
38.060	49.806
39.002	56.576
40.002	50.295
41.002	54.495
42.002	52.795
43.002	52.895
44.001	51.747
45.001	51.795
46.002	49.595
47.002	54.495
48.002	53.195
49.002	52.595
50.002	52.495
51.002	49.495
52.002	52.995
53.002	52.795
54.002	53.295
55.058	49.189
56.003	55.233
57.003	53.895
58.003	49.595
59.062	49.853
60.003	55.999
61.003	51.895
62.002	49.144
63.002	42.396
64.002	40.396
65.002	48.195
66.003	52.795
67.003	54.295
68.064	52.587
69.003	51.858
70.003	51.595
71.003	50.395
72.003	50.795
73.003	51.895
74.003	48.395
75.003	54.195
76.065	49.759
77.066	51.443
78.004	50.208
79.062	51.507
80.003	52.598
81.003	52.295
82.003	51.895
83.003	51.595
84.003	51.995
85.003	55.094
86.066	51.596
87.069	52.537
88.071	52.190
89.004	51.120
90.004	54.895
91.004	49.595
92.004	52.195
93.063	49.853
94.004	55.361
95.004	52.095
96.065	34.053
