Time [s]	Current [nA]
0.000	4.755
0.986	50.096
1.977	43.184
2.984	45.874
3.921	48.875
4.921	45.695
5.922	43.696
6.922	47.795
7.922	45.895
8.921	45.641
9.921	46.295
10.921	45.995
11.921	43.896
12.921	47.995
13.921	46.895
14.921	46.195
15.922	46.395
16.922	43.596
17.922	46.695
18.922	47.495
19.922	46.395
20.922	46.595
21.922	46.295
22.987	45.254
23.922	46.840
24.985	43.458
25.923	49.195
26.984	43.916
27.922	45.624
28.922	47.995
29.922	48.195
30.922	46.995
31.922	46.295
32.922	41.796
33.922	47.695
34.985	45.809
35.923	46.420
36.923	45.395
37.923	46.495
38.923	46.195
39.923	48.995
40.983	46.316
41.988	46.662
42.923	45.022
43.988	47.789
44.922	46.141
45.923	44.096
46.995	48.130
47.923	45.685
48.923	46.495
49.923	47.195
50.923	49.295
51.923	44.696
52.923	47.995
53.923	46.395
54.923	46.195
55.924	43.796
56.924	47.895
57.986	45.946
58.986	46.995
59.924	49.675
60.924	46.995
61.923	44.040
62.985	50.277
63.923	46.157
64.985	43.781
65.924	49.569
66.924	43.496
67.924	46.495
68.924	48.795
69.985	44.105
70.924	49.409
71.924	46.695
72.924	44.396
73.924	48.195
74.924	46.995
75.925	45.995
76.925	46.295
77.935	47.025
78.924	43.373
79.924	48.195
80.924	46.195
81.924	45.795
82.924	45.895
83.983	45.510
84.978	44.317
85.925	49.149
86.925	46.395
87.925	45.695
88.925	45.595
89.925	44.096
90.925	47.995
91.925	46.895
92.925	46.895
93.925	46.495
94.925	43.996
95.926	48.595
96.925	46.842
97.925	46.895
98.925	46.395
99.925	46.395
100.925	44.096
101.925	48.895
102.925	47.895
103.925	46.795
104.925	47.095
105.926	43.696
106.926	47.495
108.028	36.203
