Time [s]	Current [nA]
0.000	42.196
1.089	67.762
2.000	69.148
3.000	71.093
4.058	65.022
5.000	71.861
6.001	67.993
7.063	67.225
8.001	68.010
9.001	62.594
10.000	67.461
11.000	67.193
12.000	67.293
13.000	70.693
14.000	63.794
15.072	68.621
16.001	65.655
17.001	66.493
18.001	68.993
19.001	69.393
20.001	61.094
21.062	70.116
22.001	63.359
23.001	71.993
24.001	62.994
25.001	69.393
26.002	60.994
27.058	67.796
28.001	69.664
29.001	63.194
30.001	68.693
31.001	60.894
32.001	65.893
33.001	64.594
34.001	70.693
35.056	59.197
36.002	71.769
37.015	65.344
38.061	62.709
39.002	62.374
40.002	67.393
41.085	60.751
42.002	67.714
43.062	66.880
44.002	62.228
45.001	69.863
46.002	61.994
47.002	67.893
48.002	59.794
49.002	64.894
50.002	64.794
51.002	65.493
52.065	63.681
53.002	65.949
54.002	65.793
55.002	64.894
56.003	64.694
57.003	66.793
58.003	61.194
59.003	64.794
60.003	63.694
61.003	64.494
62.002	63.958
63.002	61.394
64.002	66.693
65.002	64.594
66.003	63.494
67.003	63.594
68.003	66.093
69.003	60.294
70.003	63.894
71.003	64.094
72.003	63.394
73.003	63.394
74.003	66.793
75.003	61.294
76.110	37.971
