Time [s]	Current [nA]
0.000	3.115
1.000	48.395
2.000	31.697
3.000	39.696
4.000	46.595
5.001	49.795
6.001	52.495
7.001	47.395
8.065	50.089
9.000	45.343
10.000	47.095
11.057	45.975
12.081	46.480
13.000	49.288
14.000	48.495
15.000	47.595
16.001	47.295
17.001	49.695
18.001	45.195
19.001	47.795
20.056	45.019
21.059	47.353
22.093	46.804
23.066	50.971
24.059	45.011
25.000	50.898
26.001	47.595
27.060	44.944
28.001	47.923
29.001	44.696
30.001	47.495
31.001	47.695
32.001	46.995
33.001	47.095
34.001	48.895
35.001	45.295
36.002	47.595
37.064	49.053
38.002	46.051
39.063	46.178
40.002	47.919
41.090	48.984
42.002	47.364
43.001	48.243
44.001	44.396
45.001	49.695
46.002	45.195
47.067	49.479
48.002	45.557
49.002	47.495
50.002	49.095
51.002	48.595
52.002	44.796
53.002	47.995
54.002	48.195
55.068	49.385
56.003	49.086
57.065	46.794
58.067	48.598
59.063	48.389
60.002	46.428
61.002	48.695
62.002	49.295
63.002	45.795
64.002	48.295
65.002	48.295
66.003	48.095
67.003	49.795
68.003	44.796
69.003	48.095
70.003	48.095
71.068	49.291
72.003	46.306
73.003	50.195
74.003	45.595
75.003	48.495
76.004	48.095
77.004	47.995
78.003	49.945
79.003	45.995
80.003	48.495
81.003	48.895
82.003	48.295
83.003	48.095
84.003	49.895
85.003	45.695
86.004	48.795
87.069	50.324
88.069	48.295
89.066	45.532
90.064	50.396
91.004	46.804
92.064	51.127
93.004	46.166
94.004	48.095
95.003	45.341
96.004	50.195
97.004	48.395
98.004	47.695
99.004	47.695
100.004	45.495
101.088	49.534
102.004	49.231
103.004	48.895
104.004	47.795
105.066	45.142
106.058	5.544
