Time [s]	Current [nA]
0.000	32.937
1.056	43.177
1.999	49.730
3.061	45.099
4.085	46.089
5.061	42.765
6.061	47.195
7.059	47.089
8.065	49.200
9.062	43.326
10.059	45.733
11.055	45.277
12.059	44.617
13.062	48.450
14.000	45.305
15.000	45.495
16.001	42.696
17.001	46.195
18.066	48.070
19.062	43.470
20.066	48.003
21.055	41.957
22.000	48.355
23.054	44.018
24.000	49.467
25.026	46.532
26.001	44.919
27.063	44.534
28.001	50.102
29.001	46.895
30.001	44.696
31.001	47.795
32.066	44.409
33.001	44.381
34.001	45.895
35.001	46.795
36.001	47.142
37.001	43.696
38.001	47.595
39.001	46.995
40.001	47.295
41.001	48.795
42.001	44.096
43.001	46.795
44.001	46.295
45.001	45.795
46.002	46.395
47.002	44.696
48.002	47.895
49.002	46.595
50.002	46.395
51.002	46.195
52.062	38.581
53.001	36.205
54.001	35.596
55.001	34.397
56.002	33.997
57.002	34.697
58.002	33.597
59.065	34.521
60.002	35.429
61.065	37.532
62.002	35.535
63.002	36.996
64.002	32.797
65.002	37.796
66.003	36.796
67.069	39.396
68.003	37.791
69.003	40.096
70.003	35.396
71.058	34.783
72.002	39.615
73.064	35.872
74.002	37.310
75.002	36.996
76.003	40.496
77.065	36.814
78.003	41.041
79.003	39.396
80.003	38.096
81.003	41.196
82.003	40.396
83.063	38.109
84.003	42.762
85.003	37.196
86.004	42.696
87.004	41.996
88.062	39.977
89.065	41.272
90.069	42.326
91.003	43.250
92.003	41.196
93.003	42.896
94.003	42.696
95.003	43.296
96.004	42.496
97.004	44.896
98.004	41.096
99.004	44.096
100.004	43.296
101.004	43.496
102.004	46.895
103.004	42.296
104.004	44.696
105.063	42.434
106.004	46.860
107.004	43.496
108.004	41.196
109.067	46.562
110.004	42.792
111.004	44.096
112.004	45.095
113.004	47.495
114.004	41.496
115.004	46.695
116.005	45.096
117.058	5.033
