Time [s]	Current [nA]
0.000	43.771
0.934	45.392
1.934	44.496
2.934	48.095
3.934	45.695
4.934	45.995
5.990	43.977
6.935	51.318
7.935	44.396
8.935	48.395
9.935	46.995
10.935	46.895
11.935	45.395
12.940	47.159
13.934	44.462
14.934	46.995
15.935	46.395
16.935	46.695
17.935	44.396
18.935	48.495
19.935	47.495
20.935	48.295
21.935	48.195
22.935	43.396
23.935	48.795
24.990	46.441
25.936	45.816
26.936	46.795
27.936	46.495
28.936	49.095
29.935	48.243
30.935	44.596
31.935	48.695
32.935	41.296
33.993	19.847
34.935	24.944
35.936	34.797
36.936	36.096
37.936	41.496
38.936	45.195
39.936	48.995
40.936	48.995
41.936	46.595
42.936	48.395
43.936	47.795
44.936	47.795
46.003	50.652
46.937	43.358
47.936	47.443
48.996	48.014
49.995	47.643
50.936	45.479
51.936	49.395
52.936	44.496
53.988	48.759
54.936	44.827
55.937	46.295
56.937	48.395
57.937	45.195
59.015	47.769
59.937	45.982
60.937	46.395
61.993	48.007
62.937	46.817
63.996	45.793
64.936	45.421
65.937	47.595
66.937	47.195
67.937	49.095
68.937	48.595
70.022	43.774
70.937	47.973
71.937	47.695
72.993	44.787
73.993	48.095
74.937	47.559
75.938	47.795
76.995	44.366
77.938	50.260
78.996	46.782
80.019	48.675
80.938	47.873
81.938	47.895
82.995	44.839
83.937	49.995
84.937	48.595
85.938	44.096
86.938	47.595
87.938	46.895
88.938	46.395
89.938	48.395
90.938	43.096
91.938	48.895
92.938	46.995
93.995	43.420
94.993	46.288
95.939	50.894
96.939	44.896
97.939	47.895
98.996	44.650
99.938	49.040
101.029	43.075
101.994	50.254
102.938	46.711
103.938	46.295
104.938	46.095
105.997	43.757
106.943	49.889
107.953	25.740
