Time [s]	Current [nA]
0.000	27.758
1.000	50.895
2.000	49.495
3.000	52.795
4.085	53.359
5.001	51.470
6.001	51.595
7.001	51.295
8.001	48.295
9.001	51.995
10.001	51.395
11.001	50.595
12.001	50.495
13.001	47.995
14.001	51.895
15.002	51.195
16.001	50.646
17.001	50.395
18.001	51.095
19.001	48.895
20.001	53.095
21.001	51.295
22.001	51.095
23.001	50.695
24.001	48.795
25.002	51.395
26.060	50.279
27.002	49.570
28.002	50.595
29.002	50.295
30.002	51.695
31.002	48.995
32.002	51.695
33.002	50.595
34.001	49.845
35.002	50.395
36.002	50.495
37.002	47.695
38.002	49.795
39.067	51.169
40.002	48.444
41.002	51.695
42.058	48.385
43.002	48.406
44.002	50.895
45.003	50.795
46.003	50.595
47.003	51.995
48.003	47.695
49.003	49.595
50.064	52.398
51.002	47.970
52.002	51.495
53.002	47.495
54.002	50.095
55.003	51.195
56.065	47.924
57.003	53.193
58.003	47.895
59.003	51.995
60.003	50.695
61.003	48.995
62.003	49.895
63.003	47.495
64.003	51.895
65.003	50.595
66.004	50.895
67.004	49.895
68.004	45.795
69.003	51.847
70.061	48.577
71.003	49.677
72.003	54.595
73.003	45.895
74.003	51.895
75.087	46.717
76.004	56.810
77.004	47.395
78.004	50.095
79.004	50.295
80.004	52.095
81.004	53.195
82.004	46.695
83.004	50.295
84.004	50.095
85.004	51.395
86.004	50.746
87.004	46.795
88.004	50.195
89.004	49.995
90.004	50.495
91.004	52.295
92.004	47.895
93.004	51.195
94.004	50.195
95.004	50.195
96.005	50.195
97.005	47.695
98.005	51.395
99.129	41.455
