Time [s]	Current [nA]
0.000	5.376
1.000	48.695
2.065	47.507
3.000	47.268
4.000	49.595
5.000	48.995
6.001	46.095
7.001	50.395
8.001	49.695
9.001	47.995
10.001	49.095
11.075	46.830
12.074	49.144
13.000	49.131
14.000	48.495
15.000	44.896
16.062	49.571
17.001	48.770
18.058	48.623
19.001	47.715
20.001	49.095
21.001	48.395
22.001	49.395
23.001	51.295
24.001	46.495
25.001	49.395
26.068	50.089
27.002	47.104
28.002	50.895
29.002	46.695
30.002	49.495
31.067	49.854
32.001	46.676
33.001	49.195
34.001	51.095
35.001	46.995
36.002	49.395
37.002	48.695
38.002	48.395
39.002	50.095
40.002	45.195
41.002	49.795
42.002	49.595
43.002	49.095
44.002	48.295
45.002	45.795
46.065	51.690
47.003	47.650
48.002	48.444
49.059	46.258
50.059	51.195
51.002	47.821
52.002	50.795
53.002	48.995
54.002	48.695
55.002	48.395
56.003	45.995
57.065	52.161
58.003	47.010
59.003	47.695
60.003	47.295
61.003	44.296
62.003	50.695
63.060	47.110
64.061	49.246
65.003	47.978
66.003	49.845
67.061	47.821
68.003	49.146
69.003	46.995
70.003	47.195
71.003	48.395
72.003	47.795
73.003	45.295
74.003	48.995
75.003	48.995
76.004	48.695
77.004	47.495
78.062	47.254
79.004	49.252
80.004	49.195
81.004	48.595
82.004	47.495
83.003	48.243
84.017	49.601
85.003	46.648
86.004	49.595
87.004	48.795
88.004	44.296
89.004	50.295
90.004	49.895
91.073	44.804
92.004	48.008
93.004	47.395
94.004	48.195
95.004	50.395
96.005	45.095
97.005	49.195
98.071	49.714
99.005	46.676
100.005	49.995
101.004	50.646
102.070	46.618
103.004	46.569
104.058	13.851
