Time [s]	Current [nA]
0.000	15.642
1.000	43.496
2.000	48.395
3.000	46.595
4.000	42.796
5.001	45.795
6.001	45.595
7.056	45.114
8.057	47.348
9.001	45.017
10.060	47.682
11.001	43.991
12.063	48.583
13.001	46.051
14.000	42.038
15.000	46.495
16.001	45.595
17.001	45.195
18.056	44.924
19.001	49.519
20.001	42.396
21.063	46.606
22.001	45.305
23.001	48.595
24.001	47.795
25.002	42.696
26.002	47.195
27.002	45.895
28.002	45.995
29.064	48.959
30.002	46.690
31.001	43.439
32.001	45.995
33.001	45.995
34.001	46.795
35.001	46.495
36.002	42.596
37.002	46.795
38.002	45.995
39.002	46.495
40.002	47.495
41.060	45.553
42.002	45.006
43.002	45.595
44.002	46.495
45.003	47.695
46.003	46.995
47.063	44.712
48.003	44.783
49.002	45.941
50.002	45.695
51.002	47.795
52.002	45.995
53.002	41.996
54.063	46.555
55.064	45.395
56.003	42.381
57.003	47.495
58.003	42.896
59.003	45.295
60.003	44.696
61.003	45.795
62.003	46.995
63.003	47.995
64.003	42.296
65.003	45.595
66.062	46.404
67.003	42.610
68.058	44.640
69.003	46.027
70.003	45.595
71.003	45.395
72.062	47.115
73.003	46.329
74.003	47.195
75.003	42.296
76.004	46.295
77.063	46.738
78.004	43.248
79.004	46.895
80.058	44.018
81.004	44.499
82.063	47.210
83.004	43.991
84.003	47.543
85.003	45.795
86.004	42.896
87.004	44.995
88.004	44.296
89.011	44.087
90.004	46.219
91.062	43.663
92.004	43.414
93.004	44.196
94.004	45.095
95.004	45.595
96.005	47.695
97.005	43.996
98.005	46.095
99.005	44.995
100.064	46.171
101.004	46.059
102.004	48.095
103.004	42.496
104.004	45.295
105.004	45.295
106.005	45.895
107.063	45.364
108.005	45.112
109.005	44.796
110.005	21.298
