Time [s]	Current [nA]
0.000	17.628
0.933	44.369
1.935	47.800
2.939	47.406
3.931	43.342
4.995	48.209
5.931	44.915
6.931	46.095
7.932	48.247
8.936	47.505
9.931	43.011
10.993	46.982
11.934	45.160
12.998	49.619
13.937	44.192
14.992	46.346
15.998	46.264
16.932	43.786
17.994	46.982
18.994	43.296
19.993	48.243
20.993	48.295
21.993	45.595
22.935	44.263
24.032	47.215
24.990	44.463
26.001	46.530
26.932	46.075
27.932	45.395
28.997	46.193
29.990	44.004
30.984	48.184
31.995	45.989
32.932	43.859
33.932	45.295
35.012	46.242
35.933	47.769
37.000	44.325
37.993	46.823
38.937	43.428
39.988	47.284
40.995	46.470
41.936	44.523
42.934	41.679
43.932	46.388
44.932	44.496
45.989	46.397
46.933	45.229
47.939	47.311
48.933	42.652
49.933	44.596
50.933	44.596
51.986	44.535
53.010	45.015
53.935	45.401
54.933	24.547
55.997	19.001
56.995	27.152
57.984	32.959
58.993	40.135
59.999	43.336
60.928	44.129
61.999	46.867
62.992	43.399
64.024	45.054
64.933	47.960
65.934	45.995
66.934	45.295
67.996	47.924
68.993	43.627
69.986	47.629
70.996	46.233
71.934	43.919
73.000	46.055
73.939	43.553
74.991	44.577
75.939	49.625
76.934	39.092
77.938	35.654
78.934	34.735
79.936	35.126
80.938	34.727
81.995	32.825
82.991	33.631
83.934	32.340
84.934	34.397
85.992	34.150
86.939	37.483
87.935	32.527
88.997	35.778
89.939	32.481
90.935	35.137
91.936	36.160
93.018	32.622
94.001	36.314
94.937	33.544
95.994	33.519
97.000	37.670
97.939	38.122
98.936	39.013
99.935	38.034
100.935	37.296
101.939	38.841
102.936	35.403
103.993	37.839
104.935	40.760
105.998	36.814
106.940	42.459
107.941	41.654
109.002	39.299
109.992	36.562
110.930	42.746
111.994	35.805
113.001	39.619
114.006	39.598
114.935	40.792
115.937	40.256
116.936	38.435
117.997	37.508
118.940	46.019
119.984	8.141
