Time [s]	Current [nA]
0.000	22.845
1.062	39.262
2.000	39.655
3.057	38.123
3.999	42.883
4.999	40.996
6.000	38.496
7.000	43.596
8.000	41.896
9.000	41.496
10.000	42.496
11.000	42.796
12.000	38.796
13.000	43.396
14.058	40.261
15.000	45.218
16.077	40.238
17.001	44.693
18.001	44.196
19.001	44.196
20.001	43.596
21.000	44.140
22.000	46.195
23.000	43.296
24.000	44.296
25.000	43.696
26.001	44.396
27.058	42.474
28.001	44.428
29.001	45.795
30.001	45.395
31.001	43.796
32.001	44.796
33.059	44.514
34.001	44.051
35.001	46.095
36.063	41.749
37.002	46.321
38.001	44.440
39.001	42.996
40.001	46.895
41.001	45.595
42.001	45.195
43.058	43.042
44.060	47.500
45.001	45.266
46.060	46.876
47.059	46.142
48.002	49.094
49.058	43.746
50.002	50.313
51.002	43.496
52.058	43.651
53.002	49.148
54.060	43.852
55.002	48.934
56.063	44.901
57.002	45.895
58.002	45.995
59.002	46.095
60.002	45.695
61.002	47.295
62.002	43.996
63.002	47.295
64.002	46.695
65.061	44.041
66.103	50.187
67.003	42.662
68.061	45.459
69.003	49.146
70.003	46.895
71.003	47.095
72.003	48.395
73.002	44.640
74.094	49.446
75.002	47.242
76.003	48.095
77.061	46.309
78.066	50.841
79.061	44.820
80.003	46.598
81.065	48.677
82.065	46.995
83.060	44.719
84.066	49.200
85.003	46.313
86.004	47.595
87.004	47.195
88.004	46.895
89.004	48.495
90.004	48.295
91.003	43.439
92.065	48.489
93.063	47.190
94.060	44.228
95.003	49.200
96.004	43.396
97.069	47.225
98.066	46.334
99.004	45.091
100.004	48.095
101.004	47.595
102.004	42.996
103.004	45.895
104.004	46.095
105.004	46.095
106.005	47.395
107.005	43.296
108.004	46.542
109.004	45.095
110.004	45.195
111.004	4.700
