Time [s]	Current [nA]
0.000	2.180
1.000	49.795
2.000	46.095
3.000	48.495
4.000	48.595
5.000	47.895
6.074	45.196
7.001	53.285
8.001	45.795
9.001	49.095
10.001	47.295
11.001	47.195
12.001	48.395
13.001	44.596
14.001	48.095
15.063	45.990
16.001	51.487
17.002	47.947
18.001	45.841
19.001	49.595
20.001	43.696
21.001	46.995
22.001	51.295
23.056	43.124
24.001	52.376
25.001	42.596
26.068	40.146
27.064	37.446
28.002	33.685
29.002	36.896
30.002	33.997
31.002	36.696
32.001	36.733
33.001	37.096
34.061	35.562
35.001	36.592
36.057	36.963
37.002	39.255
38.002	36.596
39.002	35.796
40.002	38.396
41.002	35.196
42.002	38.396
43.002	26.697
44.002	13.099
45.058	18.671
46.003	25.288
47.003	33.897
48.003	34.297
49.003	38.496
50.062	37.862
51.002	41.485
52.058	40.432
53.002	39.297
54.002	40.596
55.065	41.710
56.003	39.015
57.003	42.996
58.003	43.896
59.003	39.296
60.003	42.596
61.003	41.996
62.003	42.996
63.003	43.896
64.003	39.696
65.003	43.196
66.004	47.395
67.078	40.592
68.003	45.617
69.062	42.583
70.058	43.972
71.061	44.462
72.060	45.241
73.066	47.013
74.058	42.435
75.080	43.972
76.069	47.417
77.069	45.295
78.066	46.334
79.062	43.470
80.069	47.959
81.062	42.795
82.055	46.521
83.058	45.260
84.063	46.761
85.003	44.145
86.004	47.795
87.004	47.695
88.004	45.695
89.061	44.366
90.004	50.684
91.004	44.096
92.004	46.295
93.004	46.195
94.004	46.495
95.004	48.395
96.087	43.619
97.005	48.579
98.005	46.695
99.005	46.695
100.005	46.595
101.005	47.495
102.004	43.739
103.004	46.695
104.004	45.795
105.004	46.795
106.005	46.895
107.006	49.046
108.005	45.041
109.062	45.880
110.005	50.578
111.005	47.295
112.005	48.395
113.005	44.696
114.005	48.095
115.057	45.000
116.076	34.246
