Time [s]	Current [nA]
0.000	7.692
1.062	40.862
2.000	48.183
3.001	45.350
4.000	42.538
5.059	44.041
6.000	44.098
7.000	48.795
8.000	44.596
9.000	42.396
10.000	44.995
11.000	46.895
12.000	41.296
13.000	44.296
14.055	46.062
15.063	45.874
16.001	44.665
17.001	40.496
18.001	43.696
19.001	47.195
20.001	40.096
21.001	44.995
22.001	45.295
23.000	39.836
24.000	43.096
25.000	43.096
26.001	44.496
27.001	45.795
28.001	40.496
29.001	43.396
30.059	43.474
31.001	42.352
32.001	45.096
33.060	43.055
34.001	43.673
35.002	44.496
36.002	44.196
37.002	46.595
38.002	42.196
39.080	45.914
40.001	43.752
41.001	43.996
42.001	44.096
43.001	41.596
44.001	45.695
45.059	42.664
46.002	46.125
47.002	42.396
48.002	40.596
49.002	45.295
50.002	44.796
51.002	39.296
52.065	43.740
53.002	41.725
54.002	44.596
55.057	41.742
56.003	42.490
57.003	43.196
58.002	47.643
59.002	41.496
60.002	44.096
61.065	43.364
62.002	43.325
63.002	42.896
64.002	42.996
65.002	45.195
66.003	45.295
67.003	40.096
68.003	43.096
69.003	43.996
70.003	45.295
71.003	46.595
72.064	45.047
73.003	42.807
74.003	43.496
75.002	42.939
76.061	43.379
77.003	44.475
78.003	45.096
79.058	41.797
80.003	46.450
81.003	43.996
82.003	42.696
83.003	46.695
84.003	44.096
85.003	43.996
86.004	43.896
87.004	45.695
88.004	42.696
89.004	44.696
90.004	44.196
91.004	43.596
92.004	43.796
93.003	41.637
94.003	45.695
95.003	40.796
96.060	45.355
97.004	41.945
98.004	44.995
99.004	44.896
100.004	44.596
101.005	44.451
102.004	43.639
103.004	38.896
104.004	44.396
105.004	44.396
106.005	39.896
107.005	42.496
108.063	44.797
109.005	43.838
110.004	44.040
111.004	45.695
112.004	39.696
113.004	42.796
114.061	44.083
115.058	5.220
