Time [s]	Current [nA]
0.000	2.673
1.066	43.054
2.000	43.893
3.000	46.395
4.000	45.995
5.001	44.796
6.000	43.539
7.000	42.696
8.058	44.230
9.000	44.475
10.000	44.696
11.000	47.895
12.000	40.196
13.000	46.895
14.000	43.196
15.001	46.295
16.001	45.096
17.063	46.888
18.001	46.051
19.001	47.095
20.076	41.949
21.001	44.860
22.001	44.196
23.066	46.286
24.000	44.963
25.000	41.896
26.001	44.496
27.001	43.796
28.001	44.596
29.001	46.395
30.055	40.129
31.001	47.141
32.001	45.295
33.063	40.956
34.001	47.437
35.002	42.496
36.061	43.622
37.002	43.035
38.002	47.295
39.002	44.296
40.067	42.813
41.001	43.679
42.001	44.896
43.001	39.296
44.001	42.396
45.001	42.896
46.002	44.896
47.002	44.496
48.002	40.196
49.002	43.296
50.002	42.996
51.002	44.196
52.002	44.596
53.002	41.796
54.002	44.196
55.002	43.796
56.003	43.396
57.003	44.196
58.003	45.095
59.002	40.737
60.002	44.396
61.002	43.396
62.091	44.073
63.064	42.442
64.060	44.775
65.061	43.796
66.003	41.716
67.003	47.095
68.003	41.196
69.003	45.395
70.003	39.996
71.003	43.996
72.003	42.496
73.064	45.236
74.060	40.759
75.003	48.776
76.003	40.837
77.003	43.096
78.003	46.695
79.003	40.196
80.003	45.095
81.003	44.696
82.003	40.396
83.003	47.295
84.065	42.180
85.003	45.518
86.004	45.795
87.004	40.096
88.004	42.996
89.004	46.395
90.004	40.396
91.084	41.292
92.004	47.821
93.063	42.111
94.003	42.443
95.069	45.160
96.061	41.831
97.004	44.322
98.012	47.813
99.004	41.024
100.004	44.796
101.004	45.195
102.089	46.447
103.004	39.996
104.004	44.596
105.004	44.296
106.005	43.796
107.065	42.920
108.005	42.868
109.005	43.996
110.005	43.696
111.004	42.939
112.004	44.196
113.004	41.796
114.004	41.296
