Time [s]	Current [nA]
0.000	7.909
1.000	33.197
2.000	31.197
3.000	33.797
4.000	32.597
5.001	31.997
6.001	32.797
7.001	31.297
8.001	35.596
9.001	33.897
10.001	34.197
11.058	32.258
12.000	37.364
13.000	32.397
14.000	35.096
15.001	36.796
16.001	36.096
17.001	36.196
18.001	33.497
19.001	36.296
20.001	36.396
21.001	36.396
22.001	35.996
23.001	37.796
24.001	34.897
25.002	37.896
26.002	38.096
27.002	36.796
28.064	38.414
29.001	38.310
30.001	36.696
31.001	39.196
32.058	36.515
33.001	40.823
34.001	40.596
35.001	34.797
36.002	40.496
37.002	38.896
38.002	39.696
39.002	38.996
40.002	41.096
41.002	37.096
42.002	40.396
43.002	30.197
44.002	14.099
45.003	19.098
46.003	23.598
47.002	33.630
48.002	35.696
49.060	37.331
50.002	43.838
51.006	43.322
52.002	40.056
53.002	42.496
54.002	42.396
55.002	42.696
56.003	43.196
57.003	41.296
58.003	44.396
59.003	43.796
60.003	42.896
61.003	42.796
62.003	45.096
63.003	41.096
64.002	43.139
65.002	43.296
66.003	42.896
67.003	43.996
68.003	45.195
69.003	41.396
70.003	44.096
71.003	43.896
72.003	43.596
73.003	44.696
74.003	40.696
75.003	44.396
76.060	42.988
77.004	47.241
78.004	44.096
79.004	41.796
80.004	45.395
81.004	44.596
82.003	43.239
83.003	43.596
84.003	45.895
85.003	40.596
86.004	47.495
87.004	46.095
88.004	44.096
89.004	43.596
90.004	46.195
91.004	42.196
92.060	42.231
93.004	46.817
94.061	42.001
95.004	48.670
96.005	41.496
97.005	46.695
98.064	43.055
99.004	48.293
100.004	44.796
101.004	42.696
102.004	46.995
103.004	45.995
104.054	42.186
105.004	47.364
106.094	46.552
107.005	41.708
108.005	47.295
109.005	44.995
110.005	44.896
111.005	44.996
112.005	46.495
113.005	42.196
114.076	47.334
115.005	44.021
116.006	44.696
117.063	42.096
118.005	49.146
119.005	42.396
120.005	44.796
121.005	43.696
122.062	41.055
123.005	46.867
124.005	16.798
