Time [s]	Current [nA]
0.000	12.730
1.094	39.850
2.000	40.504
3.000	41.096
4.000	35.796
5.001	39.096
6.057	41.473
7.064	42.399
8.001	40.124
9.000	36.633
10.000	42.396
11.000	38.996
12.000	35.296
13.000	40.896
14.000	40.096
15.061	37.826
16.001	37.975
17.001	42.896
18.001	37.896
19.001	41.496
20.001	36.296
21.001	40.896
22.001	39.696
23.001	39.796
24.001	41.296
25.002	40.796
26.014	38.830
27.001	35.964
28.001	38.796
29.001	40.296
30.001	40.596
31.001	36.496
32.001	39.596
33.001	39.696
34.001	39.196
35.056	38.990
36.002	42.702
37.002	35.496
38.002	39.096
39.002	42.496
40.002	36.996
41.002	39.396
42.002	37.296
43.002	39.296
44.001	38.535
45.001	42.596
46.002	36.996
47.002	41.696
48.002	36.496
49.002	38.896
50.002	42.396
51.098	37.314
52.002	39.819
53.061	38.712
54.002	38.891
55.002	43.096
56.003	39.596
57.003	37.396
58.003	41.396
59.062	37.673
60.003	37.828
61.002	39.536
62.002	40.196
63.052	39.901
64.061	40.234
65.062	39.596
66.058	39.956
67.057	40.536
68.065	41.365
69.003	36.244
70.086	39.054
71.003	40.345
72.003	39.896
73.003	40.596
74.060	38.974
75.003	40.399
76.059	38.385
77.004	42.112
78.004	39.996
79.003	40.136
80.003	37.496
81.003	41.296
82.061	38.843
83.003	42.246
84.003	39.996
85.003	41.996
86.066	39.638
87.004	38.482
88.004	39.896
89.062	37.614
90.004	40.336
91.094	41.464
92.004	41.754
93.067	38.284
94.004	42.578
95.004	39.996
96.004	41.738
97.004	38.296
98.058	38.611
99.059	40.056
100.004	42.112
101.004	41.496
102.004	37.796
103.004	42.596
104.004	40.896
105.004	39.996
106.005	39.596
107.064	39.373
108.067	41.372
109.005	38.589
110.005	39.096
111.061	37.591
112.005	42.157
113.005	37.996
114.004	41.838
115.004	40.596
116.005	40.196
117.005	39.696
118.005	40.996
119.068	38.378
120.090	38.939
121.005	39.450
122.005	39.996
123.070	36.428
124.005	39.247
125.005	39.996
126.006	35.196
127.006	0.200
