Time [s]	Current [nA]
0.000	43.796
1.000	46.695
2.000	41.596
3.000	46.595
4.000	45.295
5.000	45.795
6.001	47.595
7.001	48.195
8.001	42.096
9.001	45.795
10.000	45.741
11.000	47.295
12.000	42.396
13.000	46.595
14.000	44.896
15.000	45.095
16.001	45.495
17.057	44.124
18.001	45.123
19.001	45.795
20.001	44.995
21.001	45.795
22.001	43.596
23.001	45.495
24.001	47.095
25.001	45.395
26.061	43.150
27.001	36.911
28.001	18.598
29.001	22.798
30.001	32.097
31.063	39.073
32.062	40.637
33.001	42.381
34.001	47.795
35.001	43.696
36.002	45.895
37.002	46.095
38.067	47.413
39.002	46.306
40.002	42.796
41.066	48.022
42.002	43.372
43.002	44.096
44.001	44.940
45.008	46.715
46.002	42.953
47.002	46.295
48.002	44.296
49.002	45.195
50.063	43.916
51.002	45.043
52.002	45.095
53.002	44.896
54.002	45.095
55.002	45.195
56.003	41.996
57.003	46.095
58.003	45.095
59.003	44.096
60.064	42.503
61.003	45.576
62.002	46.742
63.002	47.095
64.002	46.695
65.002	42.496
66.068	47.695
67.058	42.925
68.011	50.467
69.003	42.334
70.003	44.396
71.003	45.295
72.003	47.195
73.003	45.595
74.003	42.996
75.003	45.895
76.004	46.095
77.004	46.895
78.004	43.896
79.003	47.543
80.003	45.895
81.003	45.695
82.003	45.295
83.003	41.596
84.003	47.495
85.003	46.395
86.004	41.896
87.004	45.295
88.004	45.095
89.062	44.041
90.004	45.855
91.004	44.396
92.004	45.095
93.004	44.996
94.004	44.296
95.063	43.001
96.005	48.721
97.069	42.665
98.004	42.776
99.004	44.296
100.066	43.781
101.065	47.443
102.004	44.298
103.004	45.595
104.004	45.295
105.004	45.695
106.005	47.895
107.005	42.796
108.005	45.895
109.005	44.196
110.005	45.195
111.065	44.618
112.067	25.147
