Time [s]	Current [nA]
0.000	26.997
1.000	34.297
2.000	34.997
3.000	35.596
4.000	33.397
5.000	35.796
6.001	35.396
7.001	35.796
8.001	37.196
9.057	35.697
10.001	37.602
11.059	38.748
12.001	35.241
13.001	37.196
14.001	37.696
15.000	34.731
16.001	37.596
17.058	35.474
18.001	39.975
19.066	36.616
20.001	38.392
21.001	39.096
22.001	39.696
23.001	39.096
24.056	37.247
25.001	39.044
26.002	40.896
27.091	41.043
28.002	39.513
29.002	39.796
30.002	35.896
31.002	41.496
32.001	42.738
33.001	38.796
34.001	41.996
35.001	40.996
36.002	41.996
37.088	38.578
38.066	43.452
39.002	42.410
40.002	42.696
41.002	43.596
42.002	45.995
43.002	45.195
44.002	40.096
45.065	44.534
46.003	41.893
47.003	43.396
48.087	45.291
49.003	40.826
50.067	45.296
51.002	42.563
52.060	44.135
53.002	44.263
54.002	45.395
55.002	40.896
56.003	43.996
57.003	43.996
58.105	43.734
59.003	45.541
60.003	37.496
61.003	14.999
62.003	21.498
63.065	30.411
64.057	33.666
65.003	42.490
66.004	40.096
67.003	46.242
68.003	45.595
69.003	45.495
70.003	48.095
71.003	47.395
72.003	42.696
73.003	45.595
74.003	45.295
75.003	47.695
76.004	47.095
77.004	41.396
78.004	45.895
79.004	45.095
80.004	45.695
81.004	48.195
82.004	43.596
83.063	47.210
84.057	45.971
85.003	44.604
86.004	48.395
87.004	47.895
88.061	45.312
89.004	46.125
90.004	46.895
91.004	46.395
92.004	47.795
93.004	47.895
94.004	42.696
95.004	45.695
96.005	46.395
97.005	47.495
98.005	47.495
99.005	45.395
100.005	47.295
101.005	46.495
102.004	46.342
103.004	48.195
104.004	48.695
105.004	43.596
106.005	46.795
107.005	47.095
108.005	45.995
109.005	47.495
110.005	43.496
111.005	46.295
112.005	49.695
113.005	41.796
114.005	47.595
115.005	48.095
116.006	42.396
117.006	45.595
118.103	34.090
