Time [s]	Current [nA]
0.000	14.494
1.000	35.507
2.000	38.108
3.062	38.201
3.999	37.361
4.999	38.908
5.999	39.608
6.999	35.707
7.998	38.608
9.055	35.579
9.997	40.029
10.997	38.808
11.997	35.907
12.996	38.308
13.996	37.207
14.996	37.708
15.996	38.208
16.996	36.507
17.995	39.708
18.995	38.508
19.995	19.604
20.995	16.803
21.995	24.805
22.994	27.305
23.994	32.707
24.994	35.207
25.994	37.407
26.993	37.645
27.992	38.908
28.992	36.607
29.992	38.508
30.992	37.908
31.992	38.208
33.050	36.740
33.991	37.308
34.991	39.108
35.991	38.508
36.991	37.608
37.990	38.308
38.990	36.407
40.052	40.874
40.990	36.574
41.990	38.308
42.989	37.708
43.988	34.942
44.988	38.408
46.046	37.342
46.988	40.772
48.050	35.473
48.987	40.029
50.046	36.268
50.987	38.690
52.044	36.242
52.986	39.669
53.986	37.908
54.986	38.908
55.986	35.907
56.986	39.408
57.985	38.908
58.985	38.108
59.985	37.307
60.985	40.108
61.984	36.243
62.983	37.808
63.983	37.507
64.983	38.208
65.983	38.908
66.983	37.107
68.045	41.212
68.982	37.254
70.037	35.647
70.982	39.902
72.041	37.873
72.981	38.584
73.981	38.708
74.981	39.308
75.981	37.908
76.981	38.008
78.036	37.318
78.979	37.653
79.979	38.908
80.979	37.908
81.979	38.208
82.978	39.508
84.057	38.191
84.978	37.684
85.978	38.508
87.037	35.890
87.977	40.603
88.977	36.207
90.039	40.498
90.977	37.001
91.977	38.208
92.976	38.408
93.976	40.608
95.059	36.665
95.976	38.830
96.975	38.446
97.974	37.908
98.974	38.008
99.974	39.108
100.974	36.407
102.030	37.034
102.973	40.050
103.973	38.308
104.973	38.808
105.973	38.608
106.973	36.007
107.972	38.508
108.972	37.808
109.972	38.008
110.972	39.308
111.972	36.907
112.971	39.008
113.970	37.445
114.970	37.608
115.970	37.608
116.971	38.769
117.969	36.243
118.969	38.608
119.969	38.408
120.969	37.808
121.969	39.408
122.968	37.007
124.058	39.366
124.968	37.920
126.029	36.388
126.968	40.477
127.967	36.107
129.029	40.686
129.967	37.001
130.967	38.008
132.022	35.173
132.965	41.216
134.017	4.373
