Time [s]	Current [nA]
0.000	43.122
0.938	42.320
1.938	43.996
2.938	42.596
3.938	44.896
4.938	44.196
5.939	44.596
6.998	41.639
7.997	46.642
8.939	44.900
9.939	44.996
10.939	45.295
11.939	44.696
12.938	44.440
13.938	42.096
14.938	47.095
15.939	45.395
16.939	44.196
17.939	43.996
18.939	45.095
20.010	42.760
20.939	42.837
21.939	45.195
22.939	44.596
23.939	44.896
24.939	42.696
25.940	46.695
26.940	45.195
27.940	44.396
28.940	44.096
29.939	42.238
30.939	44.696
31.939	46.095
32.939	43.996
33.939	43.196
34.993	41.647
35.940	49.255
36.940	42.096
37.940	44.796
38.940	44.796
39.940	43.996
40.940	44.496
41.940	41.696
42.940	44.796
43.940	43.996
44.940	43.796
45.941	43.696
46.941	45.195
47.940	42.038
48.940	45.195
49.940	44.396
50.998	41.867
51.940	47.235
52.940	43.296
53.940	46.295
54.940	45.095
55.941	44.596
57.000	41.922
57.941	44.841
58.941	46.095
59.941	46.095
60.941	45.395
62.002	42.126
63.003	44.751
63.941	44.665
64.940	47.142
65.941	45.695
66.941	44.396
67.941	44.896
68.941	42.496
69.941	46.095
70.941	46.195
71.941	45.795
72.941	45.395
73.941	44.995
74.941	41.696
75.942	46.195
76.942	44.696
77.942	44.296
78.942	45.096
79.942	45.295
80.942	40.696
81.942	46.195
82.998	42.231
83.941	46.973
84.941	43.796
85.942	44.596
87.004	43.122
87.942	42.107
89.000	41.395
89.997	44.329
90.942	48.461
91.942	41.196
92.942	46.295
93.942	44.296
94.999	41.245
95.943	45.913
96.943	40.696
97.943	45.395
99.000	41.907
99.942	46.174
100.942	43.296
101.942	43.896
102.942	41.296
103.998	43.556
104.999	44.551
106.001	43.552
106.943	46.492
107.943	41.596
108.943	45.495
109.943	44.596
110.943	44.496
111.943	44.396
112.943	0.300
