Time [s]	Current [nA]
0.000	28.387
0.935	50.369
1.935	54.295
2.935	48.995
3.935	53.095
4.935	51.195
5.936	51.795
6.936	52.195
7.992	49.616
8.999	53.520
9.935	50.422
10.935	51.595
11.935	51.495
12.935	49.395
13.935	53.495
14.935	52.495
15.993	49.002
16.936	54.077
17.936	50.795
18.936	50.095
19.998	50.183
20.936	54.899
21.936	51.595
22.936	51.795
23.936	49.095
24.936	54.395
25.937	47.595
26.937	52.595
27.936	51.146
29.002	52.340
30.000	55.005
30.936	52.238
31.947	52.220
32.936	48.024
33.936	51.795
34.936	53.795
35.937	53.995
36.992	49.758
37.991	52.447
38.999	51.285
39.937	55.645
40.937	49.395
41.937	54.695
42.998	49.854
43.937	49.835
44.936	51.346
45.937	53.695
47.047	54.049
47.937	47.523
48.937	52.395
49.995	53.397
50.995	52.095
51.937	52.330
52.937	53.795
53.937	48.095
54.937	51.795
55.938	56.394
56.938	48.195
57.996	50.657
58.938	51.375
59.938	51.995
60.938	55.894
61.938	51.395
62.937	49.044
63.937	53.595
64.937	47.795
65.938	51.395
66.938	51.595
67.938	51.795
68.938	53.695
69.938	53.095
70.938	47.795
71.938	50.995
72.938	55.694
73.999	51.456
74.938	51.539
75.939	47.695
76.939	52.395
77.939	51.595
78.939	51.295
79.938	53.348
80.938	48.595
81.938	51.795
82.938	49.095
83.938	38.196
84.938	46.495
86.001	51.878
86.939	52.234
87.939	55.494
88.939	53.195
90.002	48.161
90.939	50.795
91.939	52.795
92.939	46.595
93.939	50.095
94.939	54.795
96.001	49.288
96.940	44.404
