Time [s]	Current [nA]
0.000	15.828
0.944	51.478
1.944	52.895
3.000	54.256
3.944	52.855
4.944	55.394
5.945	53.195
6.945	48.895
7.945	52.895
8.945	52.795
9.944	55.050
10.999	51.938
11.944	51.847
12.944	52.595
14.001	54.205
14.944	53.229
15.945	54.595
16.945	49.395
17.945	53.495
18.945	52.895
19.945	52.795
20.945	54.994
21.945	55.094
22.945	49.195
23.945	52.795
25.003	54.626
25.946	52.330
26.946	54.495
27.945	50.846
28.945	53.295
30.006	54.471
31.005	52.347
31.945	53.186
32.945	55.094
33.945	48.995
34.945	52.795
35.946	57.494
37.033	49.765
37.946	54.869
38.946	54.995
39.946	48.495
40.946	52.495
41.946	52.695
42.946	54.595
43.946	54.994
44.945	48.444
45.946	52.995
46.946	51.795
47.946	52.295
48.946	54.395
49.946	54.895
50.946	48.195
51.946	56.694
52.946	47.295
53.946	53.495
54.946	54.495
55.953	52.679
56.947	48.587
57.947	51.395
58.947	52.095
59.947	54.095
60.947	53.895
61.947	47.795
62.946	51.546
63.946	51.695
64.946	43.696
65.947	39.596
66.947	49.395
67.947	48.495
68.947	58.494
69.947	49.295
70.947	53.495
71.947	53.095
72.947	46.795
73.947	49.895
75.007	52.165
75.948	50.846
76.948	50.495
77.948	48.095
78.948	51.195
79.947	54.949
80.947	46.495
81.947	52.895
82.947	52.395
83.947	47.295
84.947	50.495
85.948	50.195
86.948	49.795
87.948	52.495
89.009	49.854
90.007	51.498
90.948	48.879
91.948	50.495
92.948	52.495
93.948	52.595
94.948	46.595
95.949	50.595
97.005	13.824
