Time [s]	Current [nA]
0.000	16.283
1.000	54.595
2.000	49.695
3.000	55.294
4.000	53.895
5.001	52.895
6.001	52.895
7.056	52.317
8.067	54.495
9.001	52.029
10.001	52.495
11.001	52.795
12.000	52.447
13.000	49.995
14.000	54.595
15.000	52.595
16.056	49.663
17.001	55.233
18.001	54.195
19.001	49.295
20.001	52.495
21.001	52.895
22.001	52.295
23.001	51.695
24.001	49.395
25.064	50.937
26.062	52.901
27.002	50.101
28.002	51.995
29.002	53.795
30.001	54.249
31.001	47.495
32.001	51.995
33.001	51.495
34.001	52.195
35.001	54.795
36.009	54.612
37.002	48.636
38.002	51.995
39.002	52.095
40.002	54.095
41.002	52.895
42.059	50.988
43.002	50.154
44.002	51.895
45.002	51.995
46.003	54.994
47.002	53.949
48.002	48.995
49.002	52.695
50.002	52.495
51.002	52.795
52.002	54.595
53.002	54.695
54.002	47.895
55.002	52.195
56.003	53.295
57.003	55.394
58.003	50.895
59.003	52.995
60.003	52.895
61.003	52.595
62.003	51.995
63.003	54.994
64.003	50.295
65.002	52.547
66.003	52.095
67.003	52.395
68.003	55.094
69.003	54.994
70.003	48.095
71.003	53.895
72.003	52.995
73.069	53.559
74.003	53.207
75.003	49.495
76.004	52.895
77.004	52.195
78.061	54.394
79.067	54.965
80.004	52.823
81.004	49.195
82.003	52.547
83.003	52.695
84.003	52.895
85.003	55.394
86.004	55.494
87.076	50.275
88.004	52.150
89.004	53.295
90.004	54.695
91.004	53.395
92.004	50.595
93.004	53.495
94.004	52.695
95.004	52.395
96.005	0.400
