Time [s]	Current [nA]
0.000	43.596
1.058	49.144
2.000	52.118
3.056	50.563
4.000	55.715
5.000	50.895
6.001	50.795
7.009	52.574
8.001	46.870
9.001	53.295
10.063	48.206
11.001	54.579
12.063	48.112
13.001	52.127
14.001	52.595
15.000	51.346
16.063	47.924
17.063	50.695
18.001	55.432
19.001	48.395
20.001	53.195
21.001	51.495
22.004	51.241
23.067	48.067
24.001	52.350
25.008	52.579
26.067	49.476
27.002	49.086
28.002	50.995
29.076	52.229
30.002	51.831
31.002	48.095
32.001	51.546
33.001	50.795
34.067	52.246
35.001	51.280
36.062	50.089
37.002	48.931
38.068	53.184
39.002	48.817
40.002	51.195
41.002	51.895
42.002	47.695
43.002	43.496
44.002	38.496
45.002	47.495
46.003	49.695
47.094	56.273
48.003	52.800
49.003	50.795
50.002	49.144
51.002	48.795
52.009	50.938
53.002	47.729
54.002	50.195
55.002	49.595
56.003	49.395
57.003	47.295
58.003	50.495
59.003	52.395
60.003	50.295
61.003	49.895
62.003	50.095
63.069	48.869
64.003	49.460
65.066	47.359
66.004	52.660
67.065	46.932
68.003	54.472
69.003	47.195
70.065	49.053
71.003	53.939
72.003	50.095
73.003	50.395
74.065	50.466
75.003	50.528
76.012	50.293
77.004	45.862
78.004	49.895
79.004	50.095
80.062	49.522
81.004	50.526
82.004	50.495
83.064	51.882
84.004	48.080
85.003	52.747
86.004	46.595
87.004	51.295
88.004	51.495
89.004	50.695
90.004	50.795
91.008	51.887
92.004	47.987
93.004	51.095
94.004	50.695
95.004	50.395
96.005	47.595
97.005	50.895
98.005	52.095
99.145	26.313
