Time [s]	Current [nA]
0.000	45.916
1.002	40.419
1.990	38.158
2.991	39.560
4.062	35.294
5.001	40.149
5.990	35.592
7.009	40.824
7.990	38.532
8.995	41.393
9.990	35.879
11.003	42.448
12.001	40.581
12.989	38.968
13.989	41.600
15.060	36.881
16.049	41.052
17.051	39.421
17.994	42.100
18.989	38.191
19.989	42.300
20.997	42.063
21.996	42.142
22.995	40.340
24.052	40.114
25.054	38.623
25.989	44.492
26.989	38.100
27.998	45.193
28.989	38.244
30.043	40.228
30.988	45.608
31.998	42.871
32.999	42.957
34.047	41.889
34.988	43.252
35.988	43.000
36.993	43.383
37.988	38.593
39.000	45.059
39.999	44.244
40.988	42.568
41.988	46.400
42.998	45.743
43.997	44.845
44.998	44.555
46.078	43.241
46.987	46.205
48.046	43.720
49.051	46.269
49.996	48.995
50.993	45.336
51.987	42.052
52.987	48.200
53.999	46.344
54.997	45.691
55.987	42.121
57.056	46.679
57.987	46.831
58.987	48.100
59.997	47.030
60.997	46.500
62.057	44.434
62.987	48.172
63.986	49.449
64.995	47.770
65.986	44.500
66.999	50.740
67.986	44.478
68.986	49.300
69.986	49.900
70.997	48.368
71.998	47.353
72.997	47.347
73.986	45.905
74.986	49.300
75.995	47.671
76.986	43.794
77.998	49.704
78.986	44.231
79.986	50.300
80.986	49.700
81.995	47.572
82.993	46.994
83.990	47.944
85.047	47.398
85.985	45.949
86.995	49.406
88.047	46.673
88.998	49.842
89.985	43.870
90.985	50.300
91.985	51.100
92.993	49.603
94.046	46.154
94.989	51.750
95.985	45.181
96.985	50.500
97.985	51.000
98.996	48.961
99.997	48.551
100.984	45.289
101.984	50.600
102.985	50.450
104.055	45.981
104.994	51.970
105.992	49.098
106.995	49.950
107.984	47.927
108.985	51.648
109.997	49.605
110.984	5.876
