Time [s]	Current [nA]
0.000	40.896
1.058	46.215
2.000	51.056
2.999	50.145
3.999	45.995
4.999	48.295
6.000	47.695
7.000	47.795
8.000	49.595
9.000	43.596
10.000	49.495
11.000	48.395
12.056	44.787
13.000	50.525
14.000	49.695
15.000	45.395
16.001	48.095
17.001	47.095
18.001	47.095
19.069	45.220
20.000	46.612
21.000	49.495
22.000	47.395
23.000	47.195
24.058	44.514
25.000	52.224
26.063	46.888
27.001	46.477
28.001	47.095
29.001	46.995
30.001	47.495
31.001	48.595
32.001	45.495
33.001	47.795
34.001	47.095
35.001	46.995
36.002	48.995
37.002	45.195
38.001	47.843
39.001	47.495
40.001	47.095
41.066	44.690
42.001	53.364
43.001	45.795
44.001	48.395
45.001	47.395
46.002	47.595
47.002	48.995
48.065	47.314
49.002	45.673
50.002	48.395
51.002	47.895
52.002	47.895
53.002	45.895
54.058	47.344
55.001	46.549
56.064	48.677
57.002	46.157
58.002	49.195
59.002	49.495
60.002	44.396
61.002	47.995
62.002	47.195
63.058	49.237
64.002	48.724
65.061	46.971
66.062	48.547
67.003	45.798
68.060	49.286
69.003	48.245
70.003	48.495
71.064	47.121
72.063	49.144
73.064	46.948
74.002	46.157
75.064	51.267
76.003	48.025
77.061	46.215
78.057	47.887
79.003	50.418
80.099	44.977
81.057	45.924
82.003	52.637
83.003	43.996
84.063	49.146
85.003	50.527
86.004	45.795
87.004	49.695
88.004	44.396
89.065	48.534
90.062	47.137
91.069	47.165
92.061	45.963
93.003	52.649
94.003	43.896
95.060	49.143
96.058	47.891
97.004	47.881
98.004	50.195
99.004	43.596
100.004	48.395
101.004	47.795
102.004	47.095
103.004	49.195
104.004	49.295
105.004	5.599
