Time [s]	Current [nA]
0.000	32.897
1.000	49.895
2.000	49.795
3.000	51.495
4.066	48.869
5.000	47.961
6.001	49.195
7.001	48.895
8.000	50.846
9.000	46.595
10.000	49.795
11.000	49.895
12.000	49.395
13.000	49.295
14.059	48.437
15.064	51.588
16.063	45.141
17.001	52.447
18.001	48.895
19.001	46.195
20.001	49.195
21.001	50.895
22.001	49.395
23.001	44.696
24.001	49.195
25.000	50.245
26.001	45.895
27.001	49.195
28.001	48.795
29.001	48.895
30.001	49.795
31.001	48.995
32.001	46.395
33.001	48.495
34.001	47.995
35.001	48.095
36.060	47.821
37.002	48.615
38.002	48.895
39.002	47.695
40.002	48.295
41.002	47.995
42.002	45.695
43.001	49.845
44.001	49.195
45.001	48.595
46.002	48.495
47.002	45.595
48.002	49.395
49.002	47.895
50.002	47.595
51.002	47.895
52.002	47.695
53.062	46.882
54.058	44.975
55.066	47.860
56.003	50.475
57.003	47.295
58.064	46.744
59.003	46.747
60.002	48.844
61.002	48.095
62.002	47.995
63.002	47.495
64.002	45.095
65.002	49.495
66.003	43.996
67.003	47.195
68.003	47.795
69.061	46.404
70.075	47.135
71.003	48.918
72.003	48.195
73.003	47.195
74.003	47.095
75.003	48.795
76.004	49.195
77.004	43.996
78.003	47.743
79.003	47.195
80.003	47.295
81.003	48.995
82.003	45.095
83.003	47.295
84.003	46.995
85.003	44.995
86.004	36.696
87.004	40.596
88.004	48.495
89.004	50.695
90.004	50.495
91.004	49.095
92.004	44.496
93.004	47.995
94.004	47.295
95.003	46.342
96.004	46.795
97.069	46.099
98.004	47.054
99.004	47.195
100.004	47.095
101.063	44.471
102.004	50.154
103.004	44.696
104.004	48.295
105.004	0.400
