Time [s]	Current [nA]
0.000	33.297
1.062	52.349
2.000	48.609
2.999	47.343
3.999	52.195
4.999	50.195
6.000	50.395
7.062	46.794
8.000	52.660
9.000	47.095
10.000	51.695
11.000	50.895
12.000	49.595
13.057	47.110
14.000	54.501
15.001	46.195
16.001	51.895
17.001	50.095
18.001	49.595
19.001	49.795
20.000	51.246
21.000	47.495
22.000	50.795
23.000	49.595
24.000	49.995
25.000	45.495
26.001	51.395
27.001	51.995
28.001	49.795
29.001	49.795
30.001	46.195
31.001	50.795
32.001	47.095
33.001	49.595
34.001	49.095
35.002	49.195
36.002	48.695
37.002	51.095
38.001	46.342
39.001	49.495
40.066	50.605
41.001	47.482
42.001	50.595
43.001	46.395
44.001	48.895
45.001	49.195
46.002	48.295
47.002	48.195
48.002	50.395
49.002	45.995
50.067	50.042
51.002	46.412
52.002	48.095
53.002	50.095
54.002	44.296
55.068	50.417
56.002	46.997
57.002	48.195
58.002	48.195
59.002	49.595
60.002	49.695
61.002	44.596
62.002	47.795
63.002	47.895
64.002	49.595
65.002	48.195
66.003	44.896
67.003	46.995
68.003	47.595
69.003	47.495
70.003	49.295
71.003	48.995
72.003	44.196
73.002	47.643
74.002	47.495
75.002	48.395
76.003	49.195
77.003	45.295
78.003	48.495
79.003	48.295
80.003	47.595
81.003	45.295
82.061	46.971
83.003	51.056
84.003	47.295
85.003	47.695
86.004	47.695
87.004	45.495
88.004	48.595
89.004	47.895
90.061	44.839
91.003	50.207
92.061	46.498
93.003	48.403
94.003	48.095
95.066	41.710
96.004	36.777
97.004	42.696
98.004	45.595
99.004	51.795
100.004	50.995
101.004	48.095
102.004	46.195
103.104	36.269
