Time [s]	Current [nA]
0.000	16.271
0.943	45.807
1.943	47.395
2.943	45.895
3.943	46.095
4.943	45.695
5.944	44.995
6.999	44.356
7.943	45.440
8.943	45.595
9.943	44.796
10.943	44.996
11.997	44.588
12.943	44.287
13.943	45.895
14.943	45.595
15.944	44.696
16.995	42.622
17.944	48.573
18.944	42.496
19.944	45.195
21.001	41.718
21.944	47.291
22.944	46.295
23.943	40.737
24.943	47.095
25.944	44.696
27.002	42.340
27.944	47.341
28.944	42.296
29.944	45.695
30.944	44.596
31.944	44.096
32.944	44.196
33.944	45.195
34.944	41.596
36.000	43.598
36.945	46.768
37.945	43.796
38.945	44.196
40.000	43.313
40.945	44.334
41.944	44.840
42.944	44.396
43.944	44.696
44.944	44.496
46.006	43.916
46.945	45.150
47.945	44.696
48.945	43.796
49.945	44.296
50.945	45.995
52.008	44.492
52.945	43.219
53.945	44.996
54.945	44.396
55.946	44.096
56.946	46.095
57.946	42.696
58.998	42.011
59.945	46.775
60.997	42.391
61.945	48.307
62.945	41.096
63.945	46.495
64.945	45.095
65.946	44.396
66.946	44.696
67.946	42.796
68.946	46.695
70.003	42.853
71.004	44.052
71.946	47.447
72.946	45.795
73.946	40.996
74.946	47.195
75.947	44.896
76.946	44.540
77.946	44.696
79.005	44.188
79.946	45.479
80.946	45.695
81.946	45.095
82.946	44.796
83.946	45.095
84.946	41.896
85.947	46.295
86.947	45.295
87.947	44.596
88.947	44.696
89.947	46.395
91.001	40.319
91.947	47.775
93.007	41.883
93.946	47.173
94.946	44.496
95.947	42.796
96.947	46.295
97.947	44.596
98.947	44.296
99.947	44.896
100.947	45.895
101.947	42.596
102.947	45.395
103.947	45.795
104.947	44.596
106.010	41.992
106.948	44.878
108.006	43.757
109.006	44.196
109.948	46.917
110.948	44.696
112.009	31.288
