Time [s]	Current [nA]
0.000	11.004
0.937	56.024
1.937	49.495
2.937	53.595
3.999	49.901
4.937	55.218
5.938	51.195
7.010	48.876
7.938	52.904
8.938	53.195
9.938	52.395
10.994	48.859
11.991	51.449
12.997	52.977
13.999	54.386
15.017	51.716
16.001	47.658
16.995	51.303
17.995	51.395
19.002	52.825
19.994	49.793
20.938	54.761
21.996	48.672
22.938	54.665
23.938	52.895
24.938	47.495
25.939	52.095
26.939	51.795
27.938	51.646
28.938	51.595
29.938	48.995
30.995	50.894
31.938	55.562
32.938	51.695
33.996	49.333
34.938	51.693
35.939	52.295
36.939	54.495
37.939	51.495
38.939	51.495
39.939	51.295
40.995	49.995
42.001	53.374
42.939	49.995
43.939	51.295
44.939	51.295
45.939	51.747
46.939	47.695
47.939	53.095
48.939	51.895
49.939	51.095
50.939	50.695
51.998	49.476
52.995	48.741
53.939	55.185
54.939	50.695
55.940	50.895
56.940	51.195
57.940	49.195
58.998	49.900
59.940	55.090
60.998	48.010
61.940	54.135
62.939	48.744
63.939	53.095
65.017	52.920
66.002	46.797
66.940	53.939
67.940	49.995
68.940	48.795
69.940	52.895
70.940	52.395
71.940	51.395
72.999	48.154
73.940	51.430
74.940	52.295
75.941	51.995
76.941	51.295
77.999	47.916
78.941	54.241
79.941	48.695
80.940	53.548
81.940	52.195
82.940	50.795
83.998	48.105
84.940	51.056
85.941	51.395
86.941	53.595
87.941	50.895
88.941	51.195
89.941	51.595
91.000	49.665
92.003	54.132
92.999	47.485
93.941	54.241
94.941	51.395
95.942	52.095
97.004	49.713
97.941	13.126
