Time [s]	Current [nA]
0.000	39.057
0.999	48.243
1.999	48.395
2.999	50.495
4.058	47.682
5.000	46.754
6.000	47.695
7.000	48.195
8.057	47.488
9.000	53.653
10.000	44.096
11.059	49.759
12.000	46.435
13.000	47.995
14.000	49.995
15.054	47.479
16.001	47.197
17.001	48.195
18.001	48.195
19.000	50.646
20.000	49.595
21.000	45.495
22.000	48.495
23.000	47.995
24.000	48.295
25.001	50.795
26.001	50.395
27.001	45.395
28.001	48.095
29.001	48.395
30.001	49.795
31.066	46.850
32.001	49.835
33.001	49.095
34.001	48.495
35.002	48.795
36.001	50.946
37.001	50.495
38.062	47.309
39.001	46.960
40.001	48.795
41.095	49.721
42.001	50.768
43.001	46.395
44.001	49.095
45.001	48.895
46.002	48.995
47.002	50.095
48.002	50.695
49.082	45.829
50.002	48.799
51.002	48.595
52.002	48.795
53.002	50.795
54.001	50.746
55.063	47.215
56.002	46.641
57.002	48.795
58.002	50.695
59.002	50.995
60.002	44.896
61.002	49.395
62.002	49.595
63.002	49.995
64.002	52.295
65.002	48.195
66.003	50.895
67.003	50.095
68.003	50.295
69.003	51.995
70.003	51.295
71.002	47.243
72.002	50.495
73.002	50.295
74.002	50.395
75.002	52.195
76.003	52.095
77.003	46.595
78.003	50.295
79.003	50.195
80.003	51.295
81.003	51.695
82.063	49.901
83.068	50.244
84.003	48.551
85.003	49.995
86.004	51.695
87.004	52.495
88.004	46.795
89.003	50.045
90.063	51.882
91.003	48.080
92.003	52.395
93.074	48.735
94.003	49.403
95.003	49.995
96.065	51.738
97.004	49.835
98.004	51.995
99.004	45.795
100.004	50.195
101.097	37.691
