Time [s]	Current [nA]
0.000	44.096
1.004	47.804
2.058	46.485
3.065	48.754
3.999	46.890
4.999	47.395
6.066	48.682
7.000	47.319
8.008	48.705
9.004	43.771
10.000	47.284
11.000	46.795
12.074	48.040
13.003	47.681
14.001	44.785
15.000	47.643
16.066	47.976
17.005	46.002
18.005	49.195
19.005	48.495
20.006	43.153
21.000	47.883
22.000	46.095
23.004	46.708
24.001	48.741
25.008	48.802
26.001	43.903
27.001	46.795
28.062	48.723
29.063	44.151
30.079	48.420
31.005	51.507
32.001	44.072
33.001	46.695
34.003	47.101
35.003	48.995
36.005	49.046
37.002	43.727
38.001	46.442
39.062	48.063
40.064	43.309
41.111	51.189
42.005	43.172
43.001	47.385
44.061	47.731
45.001	44.996
46.006	48.501
47.006	49.095
48.002	43.972
49.002	46.995
50.064	48.865
51.086	47.647
52.006	46.082
53.002	45.477
54.002	47.495
55.002	47.095
56.002	46.942
57.064	46.135
58.065	49.146
59.002	46.313
60.006	46.708
61.005	47.543
62.097	47.706
63.002	49.829
64.064	45.476
65.065	47.995
66.003	45.305
67.064	49.005
68.065	44.451
69.005	52.335
70.005	43.396
71.003	48.292
72.003	47.095
73.002	47.543
74.002	49.195
75.007	49.448
76.003	44.217
77.006	47.253
78.005	47.643
79.007	49.596
80.078	45.840
81.078	47.995
82.003	48.211
83.003	47.395
84.003	47.895
85.062	46.593
86.007	52.058
87.004	44.329
88.004	47.495
89.004	47.895
90.064	46.505
91.006	51.056
92.066	46.222
93.003	46.954
94.069	48.119
95.007	45.838
96.060	46.668
97.009	51.839
98.070	45.613
99.004	45.392
100.066	48.865
101.009	46.337
102.074	45.629
103.004	48.167
104.004	47.295
105.004	46.595
106.005	0.400
