Time [s]	Current [nA]
0.000	18.069
0.999	41.938
1.999	46.195
2.999	45.095
4.056	41.907
4.999	46.549
6.000	45.895
7.000	41.096
8.066	47.369
9.000	43.358
10.000	44.096
11.000	44.096
12.003	45.658
13.000	42.423
14.000	44.796
15.000	44.196
16.001	44.196
17.001	45.795
18.066	42.249
19.000	44.856
20.000	44.496
21.056	41.473
22.000	46.817
23.000	41.996
24.000	45.995
25.000	44.796
26.058	41.528
27.001	46.761
28.001	44.696
29.001	41.596
30.001	45.795
31.001	43.796
32.001	43.796
33.001	43.896
34.001	41.596
35.001	45.195
36.001	44.640
37.001	43.996
38.001	43.496
39.001	43.796
40.001	41.596
41.001	45.495
42.057	41.662
43.001	46.288
44.001	43.596
45.001	41.296
46.002	45.095
47.002	43.896
48.002	44.596
49.002	43.596
50.002	43.696
51.002	41.896
52.057	42.839
53.002	42.006
54.001	43.039
55.001	43.196
56.002	44.596
57.002	44.196
58.002	40.296
59.002	43.096
60.002	42.596
61.002	42.596
62.002	43.896
63.002	43.996
64.002	39.196
65.002	42.196
66.003	42.496
67.003	43.196
68.003	43.196
69.064	41.937
70.003	41.210
71.062	43.150
72.063	41.554
73.002	42.275
74.002	40.496
75.002	42.796
76.063	42.920
77.003	40.634
78.003	41.896
79.060	41.245
80.003	41.777
81.003	34.597
82.003	33.897
83.003	40.896
84.003	45.395
85.003	46.495
86.004	40.396
87.004	42.096
88.065	41.937
89.003	38.589
90.003	42.496
91.003	38.796
92.062	42.205
93.003	38.891
94.003	40.996
95.060	40.337
96.004	44.805
97.083	38.180
98.004	40.713
99.004	40.496
100.004	40.496
101.004	42.296
102.004	42.096
103.004	37.696
104.004	40.996
105.004	41.296
106.004	42.638
107.084	39.255
108.004	41.735
109.070	43.054
110.066	41.060
111.004	39.122
112.062	40.355
113.004	41.397
114.004	40.896
115.004	40.796
116.005	41.096
117.005	41.996
118.005	5.699
