Time [s]	Current [nA]
0.000	34.697
1.000	55.994
1.999	48.544
2.999	50.195
3.999	50.795
4.999	49.895
6.000	48.995
7.000	51.995
8.000	47.395
9.063	53.334
10.000	46.847
11.000	46.495
12.000	50.095
13.000	48.195
14.000	56.694
15.001	58.494
16.001	59.794
17.001	60.194
18.066	59.431
19.001	61.170
20.000	61.756
21.000	60.694
22.062	56.492
23.062	62.794
24.000	58.203
25.000	61.794
26.001	59.294
27.001	58.094
28.001	58.394
29.001	55.494
30.001	61.694
31.001	61.094
32.001	58.894
33.001	59.094
34.001	54.795
35.002	61.394
36.002	60.894
37.001	57.252
38.001	57.494
39.001	58.694
40.001	55.294
41.001	59.394
42.001	58.594
43.001	58.894
44.001	59.094
45.001	58.494
46.002	54.994
47.002	60.394
48.002	58.894
49.002	57.894
50.002	58.694
51.002	56.394
52.002	61.394
53.002	58.194
54.002	53.195
55.001	57.752
56.063	59.466
57.002	56.331
58.057	56.108
59.002	54.704
60.002	56.394
61.002	57.594
62.002	59.894
63.002	52.895
64.002	61.794
65.002	56.794
66.003	57.194
67.003	57.294
68.003	54.095
69.063	55.843
70.003	56.377
71.003	56.994
72.002	56.351
73.002	58.994
74.002	50.895
75.002	59.594
76.003	57.094
77.003	56.694
78.003	55.394
79.003	52.995
80.003	57.194
81.003	55.594
82.003	55.994
83.003	56.594
84.003	54.095
85.003	61.594
86.004	60.194
87.004	54.195
88.004	37.796
