Time [s]	Current [nA]
0.000	39.262
0.938	54.152
1.938	47.395
2.997	36.635
3.999	35.226
4.938	41.636
5.938	47.643
6.938	49.795
7.993	49.000
8.938	53.963
9.938	44.196
10.938	47.095
11.938	46.995
13.001	51.641
14.002	45.450
14.938	47.004
15.939	48.195
16.939	48.095
17.939	47.195
18.997	46.593
19.939	52.543
20.939	43.796
21.939	47.695
22.939	47.495
23.938	49.745
24.938	49.495
26.015	45.534
26.939	47.398
27.939	46.995
28.939	48.095
29.939	49.495
30.939	44.896
31.939	47.395
32.994	49.284
33.996	48.498
34.939	47.927
35.940	49.195
36.940	49.395
37.940	44.796
38.940	48.195
39.940	47.295
40.939	49.545
41.939	49.995
42.939	43.596
43.995	49.237
44.939	45.334
45.940	48.795
46.940	47.695
47.940	45.195
48.940	47.595
49.940	47.595
50.940	47.995
51.940	50.395
52.940	49.595
53.940	43.696
54.940	48.095
55.941	48.295
56.941	48.695
57.941	49.295
58.940	45.641
59.940	48.595
60.940	47.495
61.940	49.295
62.998	48.105
63.940	48.615
64.940	48.395
65.941	48.695
66.941	48.995
67.941	49.495
68.941	51.295
69.941	47.195
71.003	50.937
71.941	47.330
72.941	48.995
73.997	49.332
74.941	55.079
75.941	45.741
76.941	50.295
77.941	48.995
78.941	49.595
79.941	52.095
80.941	52.195
81.941	46.195
82.997	51.699
83.947	53.468
84.941	47.480
85.942	52.095
86.942	47.395
87.942	50.595
88.942	49.595
89.942	56.094
90.942	59.294
91.998	56.907
92.941	55.774
93.941	57.394
94.941	57.294
95.942	59.194
96.942	57.594
97.942	54.195
99.003	59.278
99.942	54.734
101.078	45.770
