Time [s]	Current [nA]
0.000	38.596
1.000	52.195
2.000	48.995
3.000	48.295
4.000	49.595
5.001	50.495
6.001	45.995
7.066	47.883
8.063	49.945
9.001	53.513
10.001	49.595
11.066	48.634
12.001	49.086
13.058	46.826
14.000	50.738
15.000	48.295
16.001	50.695
17.085	46.951
18.001	51.632
19.001	50.695
20.001	51.095
21.001	50.595
22.001	52.595
23.001	48.095
24.001	52.695
25.059	50.042
26.058	51.747
27.002	54.550
28.068	50.558
29.064	48.690
30.002	54.259
31.063	48.252
32.001	54.259
33.001	47.195
34.001	51.995
35.001	51.595
36.002	47.095
37.002	54.895
38.002	46.595
39.002	52.595
40.002	52.195
41.002	47.095
42.002	55.594
43.002	50.995
44.002	48.195
45.002	52.395
46.010	50.938
47.003	46.823
48.003	50.795
49.002	37.133
50.064	37.849
51.002	46.264
52.002	45.895
53.002	55.594
54.060	48.955
55.002	50.526
56.003	51.195
57.003	50.395
58.003	46.495
59.003	49.695
60.003	49.695
61.003	51.495
62.003	51.795
63.064	48.063
64.063	49.545
65.003	47.548
66.067	53.240
67.003	49.247
68.003	52.795
69.003	46.295
70.003	49.695
71.003	48.195
72.003	52.295
73.003	52.095
74.003	46.195
75.060	50.658
76.004	46.923
77.004	50.195
78.004	51.195
79.066	48.112
80.004	47.437
81.004	47.295
82.004	48.595
83.066	52.537
84.003	44.926
85.061	51.272
86.004	47.291
87.004	53.295
88.096	45.050
89.004	50.876
90.004	51.195
91.064	46.316
92.004	46.591
93.004	48.395
94.004	49.895
95.064	47.210
96.005	47.073
97.005	50.095
98.005	49.395
99.071	51.496
100.067	46.582
101.005	10.873
