Time [s]	Current [nA]
0.000	9.808
1.057	50.610
2.000	48.882
3.000	49.895
4.000	43.496
5.062	48.157
6.001	36.738
7.082	34.039
8.001	42.542
9.000	48.243
10.000	45.195
11.000	54.195
12.000	45.995
13.000	50.095
14.000	46.995
15.001	48.195
16.062	49.194
17.061	47.243
18.001	45.953
19.001	49.295
20.003	50.893
21.061	45.931
22.001	46.166
23.001	48.795
24.001	50.495
25.062	47.165
26.001	46.534
27.001	49.695
28.001	48.295
29.001	48.095
30.001	50.295
31.001	46.295
32.001	48.695
33.001	48.295
34.057	45.450
35.007	52.471
36.002	44.317
37.002	49.995
38.002	48.495
39.002	46.295
40.002	46.595
41.002	49.995
42.002	46.195
43.002	49.195
44.059	45.691
45.001	51.269
46.002	49.295
47.002	45.595
48.002	49.595
49.002	48.295
50.061	44.471
51.002	46.542
52.002	49.195
53.002	49.395
54.002	44.296
55.065	48.583
56.003	45.624
57.003	47.595
58.003	50.695
59.003	48.695
60.003	43.996
61.002	47.543
62.002	47.995
63.064	51.407
64.002	47.330
65.002	43.696
66.003	48.695
67.003	47.895
68.003	48.195
69.003	49.795
70.003	50.595
71.063	45.844
72.057	48.285
73.062	47.159
74.065	51.042
75.062	45.477
76.088	47.169
77.004	48.248
78.003	48.043
79.005	52.390
80.003	44.785
81.003	49.795
82.066	45.057
83.003	45.246
84.003	50.995
85.003	45.295
86.004	49.095
87.004	44.696
88.004	48.195
89.004	47.195
90.004	47.495
91.004	48.395
92.069	45.629
93.004	46.519
94.004	47.595
95.004	47.395
96.004	48.844
97.082	44.244
98.062	46.016
99.004	51.269
100.004	48.695
101.004	48.495
102.066	47.547
103.004	47.010
104.004	43.696
105.004	50.795
106.005	0.300
