Time [s]	Current [nA]
0.000	36.096
1.000	50.395
2.000	44.096
3.058	46.971
4.000	50.632
5.001	46.295
6.001	47.395
7.001	45.595
8.001	49.795
9.001	47.895
10.001	46.095
11.059	44.230
12.085	46.974
13.001	49.231
14.001	49.595
15.060	46.026
16.059	48.644
17.001	52.012
18.008	51.236
19.001	46.823
20.001	50.495
21.001	49.895
22.001	48.895
23.001	49.495
24.001	46.895
25.002	50.895
26.002	50.995
27.002	49.495
28.002	49.195
29.058	48.764
30.058	47.195
31.002	53.279
32.002	49.595
33.001	49.044
34.001	48.695
35.001	46.595
36.002	51.395
37.002	49.895
38.002	48.795
39.002	48.295
40.002	46.495
41.002	49.495
42.002	49.795
43.002	48.295
44.002	47.795
45.059	44.977
46.058	49.044
47.003	47.614
48.003	48.495
49.003	48.795
50.003	48.395
51.002	49.745
52.002	44.296
53.002	49.195
54.002	47.595
55.002	46.895
56.003	47.395
57.003	45.395
58.064	51.644
59.003	47.706
60.003	48.495
61.003	49.495
62.003	49.795
63.003	46.595
64.003	51.295
65.061	45.596
66.004	50.684
67.061	46.258
68.003	48.297
69.003	50.695
70.003	49.895
71.003	48.795
72.061	45.364
73.061	48.495
74.003	48.084
75.003	50.495
76.004	47.995
77.004	48.595
78.062	45.459
79.064	49.696
80.004	48.719
81.004	50.395
82.004	49.395
83.004	48.495
84.004	47.995
85.064	46.454
86.004	47.761
87.004	49.295
88.061	45.123
89.061	47.595
90.004	48.139
91.004	50.195
92.004	51.395
93.004	48.295
94.004	46.695
95.004	43.996
96.005	49.895
97.005	45.295
98.005	48.695
99.005	47.895
100.005	47.095
101.005	48.695
102.005	49.595
103.081	31.131
