Time [s]	Current [nA]
0.000	41.096
1.000	39.496
2.000	44.396
3.000	42.996
4.000	43.396
5.001	42.596
6.059	41.111
7.001	29.190
8.001	28.197
9.057	33.614
10.001	42.263
11.001	43.596
12.000	39.035
13.000	44.496
14.000	42.896
15.001	41.696
16.001	41.496
17.063	40.674
18.001	42.213
19.001	42.296
20.001	41.396
21.001	42.496
22.001	38.496
23.001	43.696
24.001	49.095
25.002	44.096
26.002	47.795
27.002	51.595
28.065	47.126
29.059	44.764
30.001	46.280
31.001	47.695
32.001	47.195
33.001	47.695
34.001	50.095
35.002	45.195
36.002	47.595
37.002	47.795
38.002	47.695
39.002	49.195
40.002	44.596
41.095	47.754
42.002	46.963
43.002	47.195
44.002	46.295
45.003	47.895
46.003	43.996
47.002	46.742
48.002	46.395
49.063	43.916
50.002	46.641
51.002	45.995
52.002	47.795
53.002	46.595
54.002	46.195
55.003	46.195
56.003	43.696
57.064	45.519
58.058	46.474
59.003	48.249
60.058	43.787
61.003	45.392
62.077	48.505
63.003	45.784
64.002	43.239
65.002	45.995
66.003	45.995
67.003	47.195
68.003	43.696
69.003	46.395
70.003	45.195
71.003	45.295
72.003	44.396
73.003	43.596
74.003	46.095
75.003	45.495
76.067	42.517
77.004	48.448
78.004	42.996
79.063	44.377
80.004	43.991
81.004	46.595
82.003	45.541
83.003	45.395
84.003	47.095
85.003	43.596
86.004	46.595
87.004	45.795
88.059	43.218
89.004	49.519
90.004	41.996
91.004	46.295
92.065	43.068
93.004	47.599
94.066	41.427
95.070	45.958
96.005	44.808
97.005	44.096
98.005	44.099
99.004	44.048
100.004	41.704
101.003	43.704
102.003	44.304
103.003	40.504
104.003	43.604
105.003	43.304
106.003	43.704
107.003	44.004
108.003	39.404
109.003	43.104
110.003	42.804
111.002	43.304
112.125	22.442
