Time [s]	Current [nA]
0.000	46.149
0.997	49.243
1.934	56.024
2.934	49.595
3.934	52.395
4.934	51.095
5.935	50.595
6.992	50.232
7.935	50.896
8.992	49.096
9.935	53.865
11.000	52.483
12.023	45.548
12.991	53.920
13.934	50.154
14.934	50.895
15.935	50.095
16.935	50.695
17.935	51.395
18.935	47.595
19.935	50.595
20.935	50.395
21.935	48.995
22.935	49.495
23.935	51.595
24.935	47.695
25.936	51.295
26.936	49.595
27.936	49.595
28.994	48.294
29.936	49.358
30.936	49.395
31.935	49.945
32.935	49.195
33.935	48.495
34.935	46.095
35.936	50.895
36.996	46.882
37.936	47.017
38.936	52.895
39.936	45.895
41.014	45.543
41.995	50.250
42.936	47.392
43.936	48.595
44.936	48.295
45.937	50.095
46.996	47.587
47.937	47.392
48.993	50.184
49.991	48.091
50.998	49.647
51.936	45.305
52.936	45.695
53.936	48.095
54.936	47.395
55.937	47.295
56.937	49.095
57.937	49.895
58.937	44.596
59.937	47.495
60.937	51.795
62.023	44.655
62.937	47.698
63.937	48.995
64.937	43.896
65.938	51.395
66.937	43.739
67.937	49.495
68.937	48.995
70.010	44.637
70.998	48.376
71.937	45.150
72.937	47.795
73.937	48.895
74.995	46.026
75.938	46.280
76.995	49.002
77.938	44.852
78.938	48.095
79.998	44.901
80.938	48.506
81.938	41.396
82.938	49.395
83.937	41.337
84.937	47.995
85.996	44.892
86.938	44.900
87.938	50.395
88.938	46.095
89.938	44.096
91.018	42.681
91.938	48.908
92.993	42.839
93.938	47.085
94.938	40.896
95.939	46.595
96.939	47.395
97.939	40.896
98.998	45.793
99.997	44.440
100.939	43.520
101.938	31.128
102.938	30.197
104.000	40.956
104.938	0.533
