Time [s]	Current [nA]
0.000	40.200
0.923	51.457
1.923	48.895
2.923	48.695
3.923	49.395
4.923	50.895
5.980	44.408
6.923	53.547
7.985	46.606
8.923	52.980
9.923	48.795
10.923	46.195
11.923	50.895
12.923	49.495
13.923	48.495
14.923	48.095
15.924	50.495
16.924	46.695
17.924	49.295
18.985	45.330
19.924	50.687
20.924	47.795
21.924	46.395
22.924	50.795
23.923	49.545
24.923	47.995
25.981	44.934
26.924	52.487
27.924	45.795
28.924	48.995
29.924	50.195
30.924	48.995
31.924	48.795
32.924	46.695
33.924	49.695
34.924	49.495
35.925	48.695
36.925	48.495
37.925	50.395
38.925	44.696
39.925	50.595
40.925	49.395
41.981	45.450
42.981	47.895
43.924	52.805
44.924	46.395
45.925	49.895
46.925	48.995
47.925	48.595
48.925	43.896
49.925	50.095
50.925	51.195
51.925	49.395
52.997	46.544
53.925	48.056
54.925	50.795
55.986	46.882
56.926	42.230
57.926	28.897
58.925	36.133
59.925	42.896
60.925	48.595
61.925	45.795
62.990	50.230
63.925	46.519
64.925	47.395
65.988	50.466
66.926	49.036
67.926	44.296
68.926	48.595
69.926	48.495
70.926	49.095
71.985	49.381
72.926	54.724
73.926	55.294
74.926	54.495
75.927	54.295
76.926	50.545
77.926	55.394
78.990	52.626
79.926	58.007
80.983	51.083
81.926	57.152
82.926	55.294
83.926	51.195
84.926	55.294
85.927	53.495
86.927	53.295
87.927	50.595
88.927	53.795
89.927	56.594
90.927	53.995
91.927	54.095
92.927	53.295
93.926	50.646
94.926	55.294
95.927	54.895
96.927	53.395
97.927	53.295
98.927	47.995
99.927	55.694
100.981	6.071
