Time [s]	Current [nA]
0.000	24.822
1.000	46.395
2.000	46.195
3.000	46.095
3.999	46.242
4.999	43.196
6.058	43.379
7.000	47.978
8.051	43.763
9.000	49.099
10.000	42.696
11.000	46.195
12.000	44.696
13.000	44.796
14.000	45.395
15.003	46.556
16.063	44.755
17.001	43.599
18.001	44.596
19.001	44.096
20.001	46.395
21.000	41.537
22.000	44.696
23.000	44.496
24.000	44.396
25.066	44.503
26.001	40.424
27.063	47.170
28.058	39.494
29.001	45.383
30.001	42.496
31.001	43.996
32.001	39.996
33.001	43.896
34.001	42.296
35.001	41.396
36.002	42.096
37.060	42.245
38.002	43.095
39.001	43.139
40.001	42.696
41.001	42.996
42.056	42.555
43.001	41.372
44.001	44.696
45.001	44.196
46.060	40.922
47.002	46.704
48.002	42.196
49.055	43.680
50.002	47.514
51.002	44.596
52.002	44.396
53.002	45.595
54.002	40.596
55.002	45.795
56.002	45.441
57.002	44.696
58.002	44.296
59.064	43.404
60.002	45.198
61.002	44.396
62.002	43.996
63.002	44.396
64.002	44.696
65.002	42.496
66.003	46.295
67.003	45.895
68.069	45.024
69.068	44.040
70.003	44.381
71.065	44.252
72.003	43.173
73.003	39.596
74.002	27.425
75.060	32.636
76.063	42.269
77.003	44.464
78.003	45.695
79.061	42.812
80.003	47.660
81.003	46.195
82.003	42.296
83.003	44.996
84.003	45.195
85.003	44.896
86.061	42.380
87.004	44.322
88.004	46.595
89.004	41.596
90.004	44.596
91.061	46.826
92.003	45.643
93.095	42.761
94.003	46.912
95.003	46.295
96.060	47.154
97.004	47.665
98.004	43.796
99.004	47.295
100.004	42.796
101.004	46.095
102.004	46.395
103.004	46.195
104.004	47.095
105.004	48.195
106.005	43.396
107.005	45.695
108.005	44.796
109.004	46.242
110.004	47.695
111.004	42.696
112.064	47.165
113.165	22.977
