Time [s]	Current [nA]
0.000	9.356
1.000	43.196
2.000	49.995
3.000	42.396
4.000	47.095
5.001	46.495
6.001	47.995
7.000	40.436
8.000	28.497
9.000	37.096
10.000	38.896
11.000	46.495
12.000	42.596
13.000	45.695
14.055	46.915
15.001	44.123
16.001	45.895
17.061	43.581
18.001	43.613
19.001	44.596
20.001	44.696
21.001	46.195
22.001	46.495
23.001	40.696
24.001	44.096
25.001	44.740
26.001	44.396
27.001	46.595
28.001	45.995
29.001	40.896
30.001	43.996
31.001	47.995
32.001	43.196
33.001	46.395
34.001	41.196
35.002	44.896
36.002	48.595
37.002	45.295
38.064	44.628
39.002	44.772
40.002	41.796
41.002	45.295
42.001	44.940
43.001	46.795
44.001	46.695
45.075	42.214
46.002	45.411
47.060	46.215
48.002	43.520
49.002	46.995
50.061	45.227
51.002	44.204
52.002	48.995
53.002	41.296
54.002	46.495
55.003	46.695
56.003	42.696
57.003	45.095
58.003	45.295
59.067	47.270
60.058	44.294
61.002	50.207
62.002	42.996
63.060	47.916
64.002	44.582
65.002	47.495
66.003	45.995
67.003	43.496
68.003	45.995
69.003	44.896
70.003	48.695
71.003	44.496
72.003	53.395
73.003	48.195
74.003	51.995
75.003	51.895
76.004	52.295
77.003	54.249
78.062	51.270
79.003	51.642
80.060	53.826
81.005	55.021
82.003	49.093
83.061	50.751
84.003	50.632
85.003	56.094
86.004	51.495
87.004	50.995
88.004	49.595
89.004	49.495
90.004	51.695
91.064	52.731
92.004	49.250
93.067	54.839
94.057	49.086
95.003	54.329
96.004	47.495
97.004	50.895
98.066	52.255
99.004	50.421
100.004	52.095
101.004	45.895
102.004	53.695
103.004	49.795
104.004	47.695
105.004	51.995
106.005	46.095
107.005	23.598
