Time [s]	Current [nA]
0.000	51.305
0.938	51.914
1.938	53.395
2.938	55.394
3.938	51.195
4.938	54.395
5.939	54.495
6.938	53.348
7.938	53.495
8.938	51.295
9.996	52.358
10.938	57.001
11.938	52.895
12.938	52.595
13.938	49.595
14.938	54.595
15.939	52.995
17.001	50.466
17.997	48.590
18.942	31.002
19.939	34.199
20.998	43.055
21.939	47.498
22.939	51.095
24.000	53.529
24.938	52.660
25.939	53.695
26.939	48.495
28.004	53.516
28.939	49.407
29.939	51.695
30.939	53.695
31.939	48.895
32.939	51.695
33.939	50.995
34.939	51.195
35.952	52.268
36.940	47.768
37.940	52.695
38.940	51.095
39.940	50.395
40.998	47.160
41.939	50.579
42.939	51.895
43.997	48.010
44.939	47.341
45.940	50.195
46.940	50.495
47.940	51.795
48.940	47.095
49.940	49.895
50.940	49.595
51.940	49.795
52.940	51.595
54.001	47.403
54.940	47.493
56.007	50.839
56.941	46.890
57.941	49.195
58.941	50.295
60.003	48.206
60.940	46.954
61.940	48.595
62.940	48.795
63.940	46.695
64.940	49.195
65.941	48.895
66.941	49.195
67.941	48.695
68.944	48.749
69.941	46.034
70.941	50.095
72.001	46.599
72.941	47.123
73.941	48.695
74.941	50.095
75.942	49.195
77.007	46.756
78.004	49.243
78.941	45.887
79.941	47.795
80.941	49.895
81.941	45.195
82.941	47.995
83.941	47.595
84.997	45.545
85.953	51.723
86.942	44.687
87.942	50.595
88.942	48.295
89.942	47.595
90.942	47.795
91.942	45.295
93.001	46.360
93.999	47.791
94.941	46.174
96.002	48.957
96.942	46.272
97.942	48.695
98.942	43.396
99.942	46.995
100.942	26.497
