Time [s]	Current [nA]
0.000	5.439
1.058	45.270
2.000	48.403
3.000	45.995
4.000	43.396
5.056	43.977
6.001	48.143
7.001	45.295
8.056	42.650
9.001	48.990
10.079	42.482
11.001	46.416
12.001	44.296
13.001	44.996
14.000	44.140
15.000	45.895
16.001	42.096
17.001	44.896
18.001	43.896
19.001	43.696
20.001	44.196
21.001	41.996
22.001	45.096
23.001	44.496
24.001	43.196
25.002	44.496
26.002	46.195
27.064	43.781
28.002	41.787
29.064	40.580
30.002	45.624
31.001	42.638
32.006	44.175
33.001	40.699
34.059	40.922
35.001	45.218
36.002	43.296
37.002	44.995
38.002	40.996
39.002	43.796
40.002	43.196
41.002	42.796
42.002	43.396
43.002	44.696
44.002	40.996
45.002	43.596
46.003	42.696
47.003	43.196
48.002	44.140
49.096	40.947
50.002	44.808
51.002	43.396
52.002	41.996
53.002	42.396
54.002	44.296
55.002	40.496
56.003	43.596
57.061	40.450
58.003	46.174
59.003	43.496
60.084	40.144
61.003	44.283
62.003	43.196
63.003	41.896
64.003	42.396
65.003	44.296
66.003	40.436
67.003	42.396
68.003	41.296
69.003	42.296
70.003	42.596
71.003	40.096
72.003	44.096
73.059	40.810
74.060	42.653
75.003	45.064
76.004	43.996
77.004	40.496
78.004	42.496
79.004	42.696
80.004	41.496
81.060	39.579
82.004	46.394
83.003	40.336
84.003	43.996
85.003	44.196
86.004	44.196
87.004	45.795
88.004	42.296
89.004	44.096
90.004	44.596
91.066	41.427
92.004	46.264
93.004	42.596
94.004	46.795
95.004	40.396
96.067	44.063
97.005	45.731
98.005	41.396
99.005	44.796
100.005	45.195
101.004	41.337
102.004	44.096
103.004	43.696
104.004	45.495
105.004	45.395
106.005	40.696
107.005	43.396
108.005	43.996
109.005	45.495
110.005	45.295
111.062	43.420
112.005	43.580
113.005	44.496
114.005	48.495
115.117	31.140
