Time [s]	Current [nA]
0.000	22.719
1.000	40.204
2.000	43.204
3.000	38.704
4.000	41.104
4.999	40.604
5.999	42.204
6.999	37.904
8.060	43.831
8.999	39.301
10.061	42.377
10.999	38.597
11.999	42.304
12.998	42.747
13.998	38.304
14.997	40.904
15.997	41.104
16.997	42.804
17.997	41.604
18.997	39.104
19.997	41.004
20.997	40.304
21.997	40.304
22.997	41.704
24.054	40.496
25.056	39.984
25.996	38.302
26.996	40.204
27.996	40.904
28.996	42.104
29.996	38.204
30.995	38.642
31.995	39.704
32.995	40.204
33.995	41.304
34.995	37.404
35.994	40.704
36.994	40.004
37.994	40.004
38.994	39.604
39.994	41.504
40.994	38.104
41.994	31.103
42.994	25.903
43.994	33.003
44.994	38.604
45.993	37.904
46.993	41.004
48.058	42.164
48.992	37.370
49.992	38.304
50.992	40.404
51.992	37.304
53.054	41.906
53.992	38.810
54.991	39.504
55.991	37.704
57.079	41.181
58.053	38.402
59.053	40.104
59.991	42.115
60.991	37.004
61.991	41.304
63.051	39.155
63.991	39.046
64.990	39.504
65.989	40.144
66.989	39.504
67.989	40.604
68.989	39.204
69.989	40.504
70.989	39.804
71.989	38.704
72.989	41.004
73.989	38.004
74.989	41.204
75.988	40.104
76.988	40.004
77.988	39.904
79.045	39.171
79.988	43.695
81.048	38.589
81.988	38.195
82.987	40.845
83.987	41.704
84.987	38.404
85.986	39.704
86.986	41.504
87.986	40.004
88.986	40.204
89.986	42.404
90.986	41.704
91.986	37.204
92.986	40.004
93.986	39.704
94.986	41.104
95.990	41.994
96.985	36.587
97.985	40.304
98.985	40.004
99.985	39.704
100.984	40.545
102.039	39.246
102.984	39.475
104.045	40.626
104.984	37.916
105.983	41.004
106.983	39.904
107.983	36.804
108.983	39.204
110.049	40.717
111.048	39.243
111.983	40.218
112.983	38.104
113.983	40.804
115.043	41.757
115.982	38.875
116.982	41.404
118.052	38.602
118.981	41.339
119.981	39.904
120.981	39.404
122.042	41.003
122.981	40.686
123.981	38.404
124.981	40.404
126.541	5.190
