Time [s]	Current [nA]
0.000	23.941
1.000	53.595
2.000	53.195
2.999	53.548
3.999	50.395
5.056	51.226
6.000	55.503
7.000	52.195
8.000	51.995
9.000	48.995
10.000	53.795
11.000	52.595
12.000	51.495
13.058	48.010
14.058	50.995
15.061	53.488
16.001	51.910
17.001	51.995
18.062	47.498
19.001	53.988
20.001	48.195
21.000	52.347
22.081	51.799
23.000	49.941
24.061	47.875
25.000	54.201
26.001	48.295
27.001	52.495
28.059	48.199
29.001	53.922
30.001	50.095
31.001	47.295
32.001	51.195
33.001	52.895
34.058	47.583
35.001	53.441
36.002	50.295
37.002	51.495
38.001	48.444
39.001	50.795
40.058	47.015
41.001	53.865
42.001	46.695
43.001	51.695
44.001	51.595
45.001	49.595
46.002	49.495
47.002	49.795
48.002	47.095
49.002	51.195
50.002	50.595
51.059	46.826
52.059	49.695
53.002	30.326
54.002	31.097
55.002	42.096
56.002	46.142
57.002	47.895
58.002	48.995
59.002	50.795
60.002	46.695
61.002	49.795
62.002	48.695
63.002	49.195
64.002	48.095
65.002	46.395
66.061	47.821
67.003	52.330
68.003	47.395
69.003	47.895
70.060	47.299
71.066	49.299
72.003	46.207
73.002	48.143
74.002	47.495
75.060	45.502
76.003	48.564
77.061	48.199
78.064	48.749
79.003	50.687
80.060	44.839
81.003	51.532
82.081	47.120
83.066	44.767
84.003	52.076
85.003	49.195
86.004	48.695
87.004	49.395
88.066	48.300
89.062	44.674
90.004	51.587
91.003	49.244
92.065	47.924
93.003	48.289
94.060	48.623
95.062	48.946
96.062	48.095
97.062	48.395
98.062	50.295
99.066	51.091
100.067	43.852
101.004	51.649
102.004	13.799
