Time [s]	Current [nA]
0.000	15.705
0.936	54.695
1.997	49.571
2.992	44.920
3.992	49.395
4.993	50.245
5.944	54.942
6.936	47.979
7.936	49.595
8.936	48.595
9.936	49.395
10.936	49.995
11.936	47.495
12.993	48.245
13.998	49.746
14.936	53.300
15.997	46.410
16.937	49.357
17.937	50.795
19.008	46.494
19.936	48.702
20.936	48.395
21.936	48.395
22.936	49.195
23.995	47.493
24.936	48.029
25.998	50.325
26.937	47.599
27.937	51.295
28.946	50.045
29.937	45.001
31.002	51.732
31.937	47.482
32.937	49.195
33.994	48.150
34.937	48.776
35.938	48.395
36.937	47.543
37.937	47.595
38.937	49.495
39.937	49.295
40.937	48.495
41.937	43.796
42.937	46.995
43.937	47.895
44.937	49.895
45.938	50.395
46.938	48.995
47.996	45.742
48.938	50.950
49.938	45.195
50.938	49.795
51.938	46.495
52.938	49.595
53.937	48.944
54.937	52.995
55.938	46.295
56.938	51.695
57.999	48.440
58.938	47.067
59.938	48.395
60.938	48.695
61.938	51.095
62.938	46.395
63.938	29.297
64.938	31.797
65.939	39.996
66.939	46.495
67.998	46.832
68.939	47.073
69.939	49.695
71.009	48.313
71.938	45.744
73.000	46.041
73.938	48.076
74.938	48.995
75.939	48.695
76.939	48.095
77.939	50.195
78.939	46.295
79.939	48.995
81.004	50.042
81.939	46.626
82.939	49.095
83.939	50.495
84.939	45.995
85.940	48.795
86.940	48.095
87.940	48.095
88.939	50.145
89.939	45.495
90.939	50.595
91.997	46.876
92.939	51.693
93.939	48.195
94.939	45.395
95.940	50.095
96.940	48.995
97.940	47.995
98.940	48.595
99.940	50.695
100.952	48.612
101.996	44.248
102.940	52.325
103.960	27.350
