Time [s]	Current [nA]
0.000	44.765
0.939	54.947
1.939	48.295
2.939	52.595
4.011	52.513
4.997	46.344
5.940	53.179
6.940	52.095
7.940	45.595
8.939	52.547
9.939	49.895
10.939	50.095
11.939	49.695
12.939	51.695
14.002	50.042
14.939	48.554
15.940	50.095
16.940	50.495
17.940	50.395
18.940	46.995
19.940	51.495
20.940	50.395
21.940	49.895
22.940	50.195
24.000	49.240
24.940	49.782
25.940	50.245
26.940	49.495
28.000	47.448
28.940	53.399
29.940	47.795
30.940	51.895
31.940	50.795
32.940	49.095
33.940	49.395
34.940	47.095
35.941	50.595
37.015	51.112
37.941	47.835
38.941	48.495
39.997	46.018
40.942	54.174
41.941	47.343
42.996	46.820
43.940	51.584
44.940	48.195
45.941	50.795
46.941	45.595
47.941	49.695
48.941	48.495
49.941	47.995
50.941	48.395
51.941	46.295
52.941	50.795
53.941	48.795
54.941	47.695
56.000	45.742
56.942	53.073
58.060	44.987
59.006	54.223
59.942	30.873
60.941	29.126
61.941	37.596
62.941	40.596
63.941	48.195
64.941	48.095
65.942	48.295
66.942	48.495
67.942	48.195
68.942	49.595
69.942	45.595
70.942	48.595
71.942	47.295
72.942	47.395
73.942	44.596
74.942	49.095
75.943	48.395
76.943	46.895
77.943	46.595
78.942	46.142
79.942	44.696
80.942	48.895
81.999	45.312
82.942	49.624
83.942	47.095
84.942	45.995
86.006	50.795
86.943	44.819
87.943	47.895
88.943	47.595
89.943	46.895
91.005	46.606
91.943	47.756
92.943	43.496
93.943	47.195
94.943	47.495
95.943	48.544
96.943	48.795
97.948	48.254
99.004	46.397
100.001	47.538
100.943	46.068
101.943	49.295
102.943	45.495
