Time [s]	Current [nA]
0.000	6.188
1.057	44.556
1.996	44.937
3.051	45.019
3.996	50.894
4.996	42.296
5.997	46.395
6.997	50.895
7.997	44.296
8.997	48.395
9.997	42.596
10.996	46.442
11.996	47.095
12.996	50.595
13.996	44.696
14.996	48.095
15.997	42.596
17.060	44.398
17.997	25.184
18.997	32.097
19.997	39.396
20.997	41.596
21.997	39.696
22.997	44.396
23.997	49.495
24.997	43.796
26.056	46.215
26.998	44.900
27.998	49.895
28.997	45.941
29.997	43.896
30.997	47.195
32.052	44.924
32.997	45.498
33.997	45.695
34.997	45.595
35.998	47.195
36.998	48.395
37.998	42.896
38.998	46.295
39.998	49.795
40.998	42.696
41.998	46.595
42.998	44.896
43.998	46.695
44.998	46.395
46.064	47.789
46.998	47.104
47.998	43.596
48.998	46.895
49.998	46.195
50.998	47.095
51.998	47.395
52.998	49.095
53.998	45.095
54.998	48.195
55.999	46.595
56.999	46.695
58.058	45.605
58.999	47.285
60.057	44.419
60.999	49.358
61.999	45.795
62.999	45.995
63.998	45.041
65.061	45.287
65.999	50.102
66.999	45.795
67.999	46.095
68.999	44.196
69.999	47.995
70.999	42.296
71.999	47.595
72.999	46.295
73.999	46.195
74.999	47.595
76.000	43.696
77.000	46.195
78.000	45.095
79.000	47.095
80.052	45.528
80.999	45.402
81.999	47.695
82.999	46.195
83.999	46.895
84.999	46.095
86.000	43.896
87.058	45.648
88.000	45.855
89.055	47.957
90.058	45.459
91.000	46.068
92.000	46.395
93.000	47.595
94.000	42.196
95.000	45.995
96.058	47.488
97.001	46.231
98.001	44.696
99.061	48.674
100.000	44.298
101.000	46.095
102.000	46.195
103.057	45.123
104.000	47.291
105.058	44.177
106.001	48.139
107.001	45.995
108.001	47.595
109.001	43.896
110.001	17.698
