Time [s]	Current [nA]
0.000	32.542
0.999	45.941
1.943	47.982
2.943	43.096
3.943	46.895
4.943	45.495
5.999	43.598
6.944	48.567
7.944	47.095
8.944	43.496
9.944	46.495
11.006	43.781
11.943	49.515
12.943	46.895
13.943	43.996
14.943	48.895
16.003	43.811
16.944	43.673
17.944	49.095
19.006	45.476
19.945	45.469
20.944	42.038
21.944	45.595
22.944	45.495
23.944	46.195
25.008	49.478
26.004	43.972
26.945	45.373
27.945	49.795
28.944	46.342
29.944	44.496
30.944	46.995
31.944	47.495
32.944	42.696
33.944	45.995
34.944	45.995
35.945	47.495
36.945	47.895
37.945	41.996
38.945	45.895
39.945	46.195
40.945	45.995
42.011	46.618
42.945	25.586
44.013	28.742
45.004	38.846
46.004	41.838
46.945	44.948
47.945	42.896
48.945	46.895
49.945	46.395
50.945	46.495
51.945	45.295
52.945	47.595
53.945	47.595
54.945	42.996
55.946	46.195
57.002	47.344
57.946	46.817
59.007	45.424
59.946	44.617
60.946	46.395
61.946	44.995
62.946	45.295
63.945	46.942
65.001	45.545
65.946	44.381
66.946	45.595
67.946	45.595
68.946	46.895
69.946	46.495
70.946	45.295
71.946	42.096
72.946	45.095
74.000	45.916
74.946	44.816
75.947	46.395
76.947	41.496
78.006	46.832
78.947	43.566
79.947	47.195
80.947	46.495
81.946	46.342
83.020	42.733
83.946	44.488
84.946	49.295
85.947	52.095
87.006	48.720
87.947	48.986
88.947	50.295
89.947	54.095
91.024	48.927
91.947	48.533
93.008	49.005
94.008	50.095
94.947	48.132
96.003	51.085
96.948	49.625
97.948	52.095
98.947	45.341
99.947	48.895
100.947	48.695
102.036	49.490
102.947	49.940
104.007	47.637
105.021	49.057
106.007	49.894
106.948	46.329
107.995	40.015
