Time [s]	Current [nA]
0.000	1.015
1.000	39.696
2.000	44.796
3.000	44.796
4.000	40.196
5.056	44.451
6.057	42.753
7.001	43.428
8.001	44.596
9.001	39.896
10.001	43.396
11.001	46.495
12.001	39.196
13.000	44.440
14.058	42.245
15.000	41.822
16.001	41.996
17.001	42.096
18.001	43.896
19.001	44.196
20.007	42.143
21.001	32.894
22.001	22.298
23.001	28.497
24.001	36.096
25.001	40.296
26.002	37.896
27.002	41.096
28.060	43.285
29.064	43.322
30.001	41.511
31.001	38.796
32.001	42.796
33.001	41.596
34.001	41.796
35.001	43.696
36.002	44.296
37.002	38.296
38.002	41.496
39.002	45.995
40.002	40.496
41.002	42.996
42.056	41.267
43.009	43.752
44.002	38.566
45.002	42.096
46.003	43.196
47.003	43.496
48.002	38.935
49.002	41.596
50.002	41.696
51.002	41.696
52.002	42.996
53.002	43.296
54.002	37.996
55.002	41.096
56.003	41.396
57.003	42.996
58.003	43.296
59.003	37.196
60.003	39.996
61.003	41.096
62.003	41.796
63.003	43.696
64.003	43.396
65.002	38.535
66.003	41.596
67.003	41.496
68.065	44.628
69.063	39.074
70.003	40.528
71.003	42.096
72.003	40.796
73.003	44.296
74.003	39.296
75.003	43.196
76.004	37.496
77.059	41.986
78.004	39.467
79.069	44.033
80.066	38.712
81.004	43.919
82.004	37.696
83.057	42.541
84.003	39.848
85.066	45.005
86.004	41.467
87.004	38.196
88.004	44.696
89.004	40.796
90.004	38.796
91.004	41.096
92.004	41.996
93.004	37.396
94.062	41.678
95.069	40.851
96.005	42.303
97.005	42.396
98.066	39.110
99.005	38.548
100.004	40.236
101.004	40.996
102.004	41.796
103.004	38.496
104.065	42.409
105.004	39.080
106.005	41.096
107.005	42.596
108.005	42.796
109.005	37.896
110.005	40.596
111.005	43.896
112.103	38.339
113.005	42.789
114.005	42.196
115.005	37.496
116.006	40.796
117.006	44.996
118.067	40.712
119.005	40.934
120.005	37.496
121.005	41.296
122.017	22.330
