Time [s]	Current [nA]
0.000	20.819
0.937	45.353
1.937	50.195
2.937	49.595
3.937	48.495
4.936	48.744
5.937	50.295
6.937	50.995
7.937	46.095
8.937	48.995
9.937	48.895
10.937	50.695
11.937	50.395
12.937	45.295
13.937	49.295
14.937	48.795
15.938	48.595
16.938	49.995
17.999	47.969
18.938	47.706
19.938	48.095
20.938	48.495
21.996	47.443
22.937	51.642
23.998	47.875
24.937	46.428
25.938	47.495
26.938	47.895
27.938	49.395
28.938	49.095
30.003	45.160
30.938	45.664
31.938	46.695
33.031	47.662
33.938	47.735
34.938	44.396
35.939	46.795
36.939	46.295
37.999	47.825
38.992	44.004
39.997	48.154
40.938	45.479
41.938	46.295
42.938	45.795
43.938	46.395
44.938	48.295
45.939	43.696
46.939	46.595
47.999	47.542
48.939	43.719
49.995	45.261
50.939	46.182
51.939	45.595
53.004	47.976
54.000	46.080
54.939	43.766
55.940	46.995
56.940	47.395
58.004	44.544
58.939	44.381
59.939	45.595
60.939	47.695
61.939	47.095
62.939	35.296
63.939	25.297
64.939	32.697
65.940	38.896
66.940	43.596
67.993	44.155
68.940	44.029
69.940	45.495
70.940	44.896
71.998	44.514
73.025	44.981
74.001	49.380
74.939	44.345
75.940	45.595
77.005	47.038
77.999	43.054
78.940	46.223
79.940	46.295
80.940	45.695
81.940	45.495
82.940	45.895
83.940	47.695
84.940	43.096
85.941	45.895
86.999	47.065
87.941	43.414
89.003	48.771
89.941	42.426
91.006	46.944
91.940	43.358
92.940	45.595
93.940	45.495
94.940	47.895
95.941	43.596
96.941	45.195
97.941	45.095
98.941	45.795
99.995	44.018
100.996	42.753
102.013	44.735
103.002	46.406
103.999	44.629
104.941	47.341
105.942	42.696
106.942	46.895
108.004	43.498
108.942	14.071
