Time [s]	Current [nA]
0.000	14.129
0.998	49.093
1.942	46.923
2.942	50.395
3.942	50.795
4.941	48.444
5.942	45.095
6.942	48.195
7.942	48.395
9.001	46.832
9.942	48.242
10.942	49.095
11.942	47.395
12.942	48.095
13.942	49.795
15.038	44.562
15.943	50.271
16.943	48.895
17.943	47.495
18.943	47.895
20.002	46.738
20.943	48.773
21.943	48.095
22.942	47.643
23.942	47.795
24.942	44.096
25.943	50.095
26.943	50.095
27.943	47.195
28.943	44.196
29.943	47.395
30.943	49.395
31.943	45.495
32.943	48.395
33.943	48.295
34.943	48.595
36.037	49.309
36.944	49.830
37.944	45.495
38.944	48.095
40.008	48.867
40.943	45.129
41.943	49.195
42.943	45.495
43.943	47.995
44.943	49.195
46.009	49.385
46.944	46.412
47.944	50.295
48.944	45.095
49.944	48.395
50.944	46.595
51.944	47.095
52.944	49.495
53.944	43.996
54.944	47.595
55.945	47.395
56.945	46.795
57.944	47.243
58.944	49.795
59.944	44.996
60.944	47.995
61.944	47.795
62.944	47.895
63.944	49.895
64.944	43.996
65.945	49.495
66.945	48.495
68.004	44.849
68.945	50.898
69.945	44.995
70.945	49.795
71.945	44.496
72.945	47.695
73.945	46.995
74.944	47.743
75.945	48.395
76.945	45.995
77.945	48.095
78.945	47.795
79.945	47.695
80.945	45.295
81.945	49.395
82.945	47.895
83.945	47.295
85.007	36.343
85.946	28.569
86.946	32.697
87.946	41.796
89.008	42.086
90.007	46.342
90.946	50.048
92.007	46.367
92.945	47.970
93.945	48.695
94.945	48.395
95.946	47.895
96.946	48.495
97.946	46.195
98.946	50.195
99.946	48.295
100.946	48.095
102.000	45.821
102.946	48.092
103.946	50.195
104.946	44.696
106.091	31.640
