Time [s]	Current [nA]
0.000	14.888
1.000	42.196
2.000	38.196
3.000	43.396
4.064	44.544
5.001	40.701
6.001	41.996
7.001	44.396
8.001	40.496
9.064	44.963
10.056	38.605
11.001	45.604
12.000	40.837
13.000	42.696
14.000	43.496
15.001	42.496
16.001	42.296
17.001	42.296
18.001	43.896
19.062	42.409
20.063	39.357
21.001	45.091
22.001	42.096
23.001	43.396
24.001	39.096
25.002	44.096
26.063	40.241
27.002	45.682
28.002	42.896
29.002	40.696
30.001	44.740
31.001	43.096
32.001	42.296
33.001	43.096
34.001	43.096
35.001	40.796
36.002	44.496
37.063	40.995
38.059	42.566
39.002	45.276
40.002	44.196
41.002	41.496
42.002	43.796
43.002	43.496
44.002	42.696
45.003	42.596
46.003	40.796
47.002	44.640
48.002	40.596
49.062	47.354
50.002	44.464
51.059	45.407
52.011	50.625
53.002	42.882
54.002	47.095
55.002	46.395
56.003	46.195
57.003	48.495
58.065	46.041
59.003	45.091
60.003	45.895
61.003	46.195
62.003	43.396
63.083	47.495
64.003	47.169
65.002	46.142
66.003	45.795
67.003	45.895
68.003	47.095
69.003	43.796
70.003	46.795
71.003	45.995
72.003	46.095
73.003	46.995
74.003	43.096
75.003	47.395
76.004	45.995
77.004	45.495
78.061	42.853
79.067	46.317
80.004	46.420
81.004	46.495
82.003	45.441
83.003	45.295
84.003	45.295
85.003	43.396
86.004	47.695
87.004	42.396
88.004	45.395
89.004	45.295
90.004	47.195
91.004	43.196
92.004	45.895
93.004	46.195
94.004	45.895
95.068	44.022
96.005	46.207
97.005	46.195
98.005	45.295
99.005	45.095
100.004	44.340
101.004	41.796
102.100	46.619
103.004	44.465
104.004	44.796
105.004	44.896
106.005	44.796
107.067	43.969
108.063	42.566
109.005	48.827
110.005	44.696
111.005	44.896
112.005	42.296
113.056	31.396
