Time [s]	Current [nA]
0.000	39.296
1.000	42.296
2.065	46.099
3.000	43.204
4.000	44.995
5.001	47.595
6.056	44.924
7.082	44.635
8.001	45.588
9.001	45.895
10.063	47.359
11.001	41.680
12.000	47.543
13.000	45.695
14.000	45.395
15.000	45.395
16.001	47.395
17.001	43.296
18.001	46.495
19.001	46.295
20.001	44.896
21.001	44.896
22.055	44.303
23.063	47.416
24.058	41.403
25.001	48.033
26.002	45.295
27.002	46.995
28.002	41.496
29.002	47.095
30.001	46.242
31.001	45.695
32.001	46.095
33.001	46.995
34.001	43.596
35.001	47.495
36.002	45.295
37.002	44.896
38.002	46.495
39.072	42.613
40.057	43.752
41.060	45.260
42.002	47.554
43.058	42.231
44.058	46.695
45.065	46.914
46.003	43.279
47.002	44.440
48.057	41.797
49.002	47.614
50.002	42.996
51.002	46.295
52.060	42.718
53.002	47.023
54.060	42.340
55.002	49.040
56.003	42.796
57.003	45.295
58.003	44.696
59.003	45.295
60.003	44.995
61.003	42.996
62.003	47.095
63.003	46.295
64.003	44.995
65.058	43.165
66.003	49.519
67.003	42.496
68.063	43.769
69.003	48.612
70.003	45.195
71.003	44.396
72.003	45.795
73.003	42.796
74.003	47.195
75.062	46.215
76.061	49.244
77.063	50.694
78.098	48.787
79.004	50.216
80.004	49.595
81.004	48.695
82.003	48.444
83.003	50.895
84.003	46.695
85.062	46.782
86.004	51.799
87.061	46.353
88.004	53.335
89.004	44.995
90.004	50.795
91.004	49.095
92.059	45.777
93.004	51.847
94.004	51.195
95.004	46.495
96.005	49.995
97.005	48.695
98.005	48.795
99.005	48.995
100.066	47.875
101.004	49.249
102.004	49.395
103.004	36.296
104.004	24.498
105.004	34.297
106.005	37.896
107.005	44.296
108.005	46.595
109.105	23.452
