Time [s]	Current [nA]
0.000	4.125
1.000	34.797
2.000	37.296
3.000	38.696
4.000	36.896
5.001	36.796
6.001	36.896
7.003	37.721
8.001	35.067
9.001	37.696
10.001	36.396
11.001	36.396
12.000	37.133
13.000	34.197
14.000	38.196
15.001	36.696
16.001	36.796
17.001	36.296
18.001	37.396
19.001	34.897
20.001	37.696
21.001	36.696
22.001	36.496
23.001	36.796
24.001	35.096
25.002	37.696
26.002	37.496
27.060	34.685
28.002	38.637
29.002	34.297
30.001	37.834
31.001	37.096
32.001	37.396
33.001	36.896
34.001	36.896
35.002	35.096
36.002	38.596
37.064	34.836
38.002	39.442
39.002	36.696
40.002	34.697
41.002	38.096
42.002	38.196
43.002	36.696
44.059	34.812
45.003	39.233
46.007	38.243
47.002	35.574
48.002	37.796
49.002	36.796
50.002	37.096
51.002	34.897
52.002	37.496
53.002	38.996
54.002	37.496
55.003	36.996
56.003	37.196
57.003	35.196
58.003	38.696
59.060	35.947
60.060	37.096
61.060	37.396
62.008	40.608
63.003	35.273
64.003	38.796
65.002	38.034
66.062	35.596
67.003	36.978
68.003	38.996
69.003	35.496
70.003	37.896
71.003	37.596
72.003	37.496
73.003	37.496
74.003	38.996
75.003	34.997
76.004	37.396
77.004	36.896
78.065	38.168
79.004	37.057
80.067	36.685
81.004	36.709
82.003	37.834
83.064	38.356
84.063	37.234
85.003	37.762
86.004	35.996
87.004	37.396
88.004	37.296
89.004	37.496
90.004	38.596
91.004	38.396
92.004	34.897
93.004	37.196
94.004	37.296
95.004	37.796
96.005	38.796
97.005	34.996
98.067	38.979
99.005	36.031
100.004	37.334
101.004	38.396
102.085	35.242
103.065	39.690
104.004	36.205
105.004	36.896
106.005	37.196
107.005	38.296
108.005	32.397
