Time [s]	Current [nA]
0.000	37.696
1.000	48.195
2.000	51.695
3.000	44.995
4.000	48.095
5.000	45.341
6.000	48.195
7.000	46.895
8.000	51.495
9.000	44.896
10.000	48.995
11.000	43.496
12.000	46.795
13.000	50.995
14.069	46.487
15.001	45.216
16.001	44.696
17.062	48.817
18.001	44.830
19.055	47.718
20.001	46.613
21.001	48.995
22.000	43.439
23.057	48.056
24.000	49.306
25.001	42.496
26.001	48.895
27.001	48.495
28.001	43.496
29.001	46.295
30.001	46.495
31.001	48.395
32.001	48.995
33.001	42.996
34.001	46.595
35.002	50.495
36.002	42.796
37.002	48.595
38.002	48.595
39.063	44.670
40.001	44.985
41.001	46.495
42.063	49.807
43.060	44.128
44.001	50.261
45.002	42.896
46.002	46.395
47.002	46.395
48.002	47.795
49.002	48.095
50.002	43.196
51.002	45.995
52.002	46.495
53.002	48.395
54.002	48.895
55.003	43.296
56.003	46.695
57.002	46.942
58.058	48.101
59.002	46.817
60.002	49.095
61.002	43.596
62.002	46.895
63.002	51.195
64.064	46.982
65.002	45.411
66.003	48.595
67.003	43.796
68.003	46.895
69.003	46.995
70.003	48.695
71.003	49.595
72.003	43.696
73.003	47.195
74.057	48.667
75.002	46.556
76.003	48.695
77.003	45.895
78.003	47.495
79.063	48.769
80.003	46.059
81.003	49.095
82.003	49.395
83.003	44.196
84.003	47.195
85.003	51.395
86.004	42.696
87.004	49.295
88.067	45.997
89.004	46.527
90.004	37.596
91.004	41.096
92.003	43.439
93.003	51.095
94.076	46.780
95.003	48.323
96.004	46.395
97.004	45.495
98.004	47.195
99.004	47.595
100.004	41.996
101.004	45.395
102.060	47.249
103.004	46.711
104.004	48.795
105.004	46.395
106.005	43.596
107.058	9.306
