Time [s]	Current [nA]
0.000	26.964
1.000	50.695
2.000	49.895
3.000	47.595
4.000	49.795
5.000	50.795
6.001	49.395
7.001	48.695
8.001	48.795
9.001	47.295
10.001	51.295
11.057	46.965
12.001	52.008
13.001	49.095
14.001	50.395
15.001	43.996
16.002	50.795
17.001	49.344
18.058	45.596
19.001	50.684
20.001	50.695
21.001	46.395
22.001	49.495
23.059	45.648
24.001	51.056
25.001	50.195
26.072	46.911
27.002	49.242
28.002	48.795
29.002	47.595
30.002	47.795
31.002	31.497
32.002	27.997
33.002	38.596
34.001	42.738
35.001	46.295
36.002	48.095
37.059	48.150
38.058	47.243
39.002	51.902
40.058	45.639
41.002	51.584
42.060	48.388
43.002	50.101
44.002	50.395
45.002	49.195
46.003	48.895
47.003	48.795
48.058	47.863
49.003	49.730
50.059	47.912
51.003	52.537
52.002	49.945
53.059	49.191
54.002	50.472
55.002	50.695
56.062	48.059
57.003	52.917
58.003	49.495
59.003	47.195
60.003	51.195
61.003	50.395
62.059	47.154
63.003	52.325
64.003	51.195
65.003	46.395
66.004	51.495
67.004	50.895
68.004	49.595
69.003	49.845
70.003	51.595
71.003	47.395
72.060	47.299
73.058	50.095
74.003	53.328
75.003	51.795
76.084	46.477
77.004	51.299
78.004	49.895
79.004	49.895
80.004	48.995
81.004	51.295
82.066	48.959
83.004	47.756
84.004	49.295
85.004	49.995
86.088	45.702
87.004	51.742
88.004	51.595
89.063	47.493
90.004	52.492
91.004	49.295
92.004	46.995
93.004	51.495
94.004	50.495
95.066	48.157
96.071	49.149
97.005	53.956
98.005	46.895
99.060	48.621
100.005	53.328
101.060	47.294
102.056	50.095
103.005	0.421
