Time [s]	Current [nA]
0.000	20.746
1.000	48.295
2.080	47.773
3.000	52.495
4.000	50.095
5.001	49.595
6.001	48.995
7.001	51.095
8.001	46.895
9.001	50.095
10.001	49.495
11.001	48.995
12.001	49.195
13.000	51.847
14.000	47.395
15.001	49.295
16.001	48.795
17.001	49.195
18.001	51.495
19.001	46.695
20.001	49.295
21.001	49.195
22.001	49.395
23.001	49.495
24.001	51.195
25.002	46.195
26.002	48.995
27.002	48.995
28.002	49.295
29.002	51.495
30.002	45.995
31.001	50.245
32.058	46.921
33.001	52.169
34.001	49.395
35.002	46.495
36.002	50.895
37.002	49.595
38.002	48.695
39.002	49.195
40.002	46.395
41.002	49.095
42.063	48.252
43.002	52.391
44.002	49.195
45.003	48.695
46.003	46.095
47.003	50.595
48.002	49.244
49.002	49.395
50.002	49.195
51.002	46.095
52.002	50.195
53.002	51.795
54.002	45.795
55.003	49.895
56.003	49.595
57.003	50.495
58.003	46.995
59.003	50.095
60.069	51.402
61.069	49.395
62.095	50.092
63.003	45.150
64.065	53.290
65.003	48.716
66.003	49.645
67.063	46.788
68.003	49.995
69.003	51.095
70.003	50.595
71.003	50.495
72.003	49.795
73.003	50.495
74.003	48.395
75.003	53.195
76.004	52.395
77.004	51.295
78.004	51.095
79.004	48.795
80.004	52.995
81.004	51.695
82.004	52.095
83.003	51.446
84.003	51.195
85.003	48.995
86.004	53.495
87.004	52.395
88.004	51.595
89.004	47.595
90.004	53.695
91.004	52.595
92.004	48.795
93.070	53.184
94.065	51.452
95.004	49.516
96.005	53.295
97.005	48.995
98.005	52.095
99.005	51.395
100.005	51.395
101.004	0.400
