Time [s]	Current [nA]
0.000	22.065
1.000	52.595
2.057	54.015
2.999	53.392
3.999	53.795
4.999	54.195
6.000	55.894
7.000	54.895
8.001	54.540
9.000	49.645
10.056	55.013
11.000	51.584
12.000	55.894
13.000	56.094
14.000	49.995
15.060	55.330
16.001	51.111
17.002	54.140
18.073	51.162
19.001	55.167
20.061	55.749
21.000	50.900
22.000	52.795
23.065	56.426
24.000	47.910
25.062	54.943
26.001	50.261
27.001	52.595
28.001	52.795
29.001	55.494
30.057	51.510
31.001	51.584
32.061	54.240
33.001	51.165
34.063	56.115
35.002	47.543
36.002	51.595
37.002	53.095
38.001	51.947
39.001	52.395
40.001	54.595
41.060	51.270
42.001	51.642
43.001	52.295
44.001	52.895
45.001	54.795
46.002	55.394
47.009	53.421
48.002	48.736
49.060	55.382
50.002	51.163
51.059	52.786
52.002	54.077
53.002	53.995
54.061	54.763
55.002	51.217
56.064	57.393
57.002	52.340
58.066	51.687
59.002	52.666
60.002	53.095
61.002	53.295
62.057	52.222
63.002	58.724
64.002	49.795
65.002	53.195
66.003	53.295
67.003	53.795
68.003	54.495
69.062	52.403
70.064	54.386
71.003	50.794
72.062	54.858
73.002	53.931
74.002	56.094
75.002	49.895
76.063	54.712
77.003	51.059
78.003	52.795
79.003	55.194
80.003	50.395
81.003	53.895
82.003	53.195
83.003	53.295
84.003	55.194
85.003	56.094
86.004	48.495
87.004	53.795
88.004	52.895
89.066	55.456
90.004	53.513
91.003	55.250
92.003	49.495
93.003	53.895
94.205	29.365
