Time [s]	Current [nA]
0.000	5.437
1.075	35.438
2.000	42.266
3.058	35.630
4.000	35.984
5.001	37.496
6.001	38.796
7.001	38.596
8.001	34.497
9.001	37.496
10.001	40.196
11.001	34.097
12.001	38.896
13.001	39.196
14.001	34.597
15.000	37.234
16.001	36.996
17.001	38.296
18.001	38.696
19.001	34.197
20.001	37.196
21.001	36.996
22.001	37.096
23.001	38.996
24.001	38.196
25.016	37.274
26.002	34.986
27.064	38.320
28.002	37.843
29.002	38.496
30.002	33.597
31.002	38.296
32.001	37.334
33.001	37.296
34.001	39.196
35.001	37.896
36.002	36.296
37.002	42.796
38.060	37.614
39.002	39.805
40.002	41.196
41.069	37.578
42.002	39.439
43.002	39.696
44.002	39.896
45.065	42.651
46.003	39.868
47.003	36.596
48.003	42.996
49.002	39.836
50.002	37.796
51.002	39.996
52.002	41.196
53.002	36.696
54.002	39.896
55.002	39.596
56.003	40.996
57.003	41.696
58.003	36.996
59.003	39.496
60.003	39.596
61.077	42.175
62.003	38.765
63.003	38.096
64.061	40.828
65.003	41.822
66.004	39.196
67.003	37.434
68.062	38.901
69.003	38.997
70.003	42.696
71.003	36.096
72.003	39.296
73.003	41.596
74.003	41.096
75.003	36.496
76.004	39.696
77.004	39.196
78.004	40.796
79.004	20.898
80.075	20.353
81.004	28.307
82.004	32.597
83.061	37.272
84.003	37.257
85.062	37.898
86.004	38.743
87.004	39.296
88.004	39.296
89.004	40.796
90.004	41.096
91.004	39.796
92.004	36.296
93.004	38.996
94.004	39.396
95.004	40.796
96.005	40.096
97.060	37.437
98.005	41.054
99.061	36.644
100.005	38.979
101.005	38.796
102.004	39.936
103.004	35.996
104.065	39.770
105.146	26.294
