Time [s]	Current [nA]
0.000	15.246
0.977	27.940
1.979	29.837
2.979	28.697
3.912	27.221
4.912	28.897
5.913	30.297
6.913	27.297
8.000	28.424
8.913	27.599
9.913	28.097
10.913	27.997
11.913	26.697
12.913	27.997
13.913	28.097
14.913	27.097
15.914	27.597
16.971	27.244
17.914	26.827
18.914	28.597
19.914	27.197
20.913	27.325
21.972	26.721
22.913	29.328
23.913	30.097
24.913	29.697
25.914	28.897
26.914	28.497
27.970	28.217
28.914	27.751
29.914	30.297
30.914	28.797
31.914	28.797
32.914	28.497
33.914	27.197
34.914	29.797
35.915	29.097
36.915	28.497
37.915	28.297
38.914	29.326
39.914	27.597
40.971	28.190
41.914	31.068
42.914	29.097
43.972	27.502
44.914	31.632
45.915	27.597
46.915	29.197
47.978	26.996
48.915	30.840
49.972	26.960
50.915	28.523
51.915	28.997
52.915	28.997
53.915	28.697
54.971	27.081
55.915	28.629
56.915	29.897
57.984	27.032
58.915	31.254
59.915	27.797
60.915	27.997
61.915	29.097
62.915	26.797
63.915	29.697
64.915	28.797
65.916	29.197
66.916	27.297
67.916	28.297
68.916	29.597
69.974	27.124
70.916	30.146
71.916	27.997
72.916	26.797
73.915	29.827
74.915	29.197
75.977	26.670
76.916	30.135
77.992	28.064
78.916	28.893
79.916	31.097
80.916	29.297
81.916	29.497
82.916	28.997
83.975	29.081
84.974	27.625
85.917	29.933
86.976	26.815
87.917	30.921
89.020	29.825
89.981	28.613
90.916	29.837
91.916	28.797
92.916	28.997
93.974	26.651
94.971	29.385
95.917	28.886
97.001	29.517
97.978	26.609
98.917	30.881
99.976	27.665
100.976	29.597
101.979	30.206
102.973	26.858
103.917	30.611
104.917	28.997
105.918	27.297
106.918	28.497
107.918	29.897
108.979	27.424
109.974	28.640
110.975	28.369
111.971	29.114
112.978	29.590
113.917	26.941
114.917	27.497
115.918	28.097
116.918	25.997
117.918	28.097
118.918	29.697
119.918	27.997
120.918	27.797
121.918	25.597
122.918	19.298
123.918	25.297
124.918	28.497
125.976	28.285
126.918	31.738
127.918	29.597
128.918	26.697
129.985	27.645
130.918	29.579
131.918	27.697
132.918	27.797
133.921	29.110
134.918	27.379
135.919	28.497
136.919	27.497
137.919	28.097
138.919	27.897
139.919	27.497
140.919	11.399
